#Thickness(um)           XX(V)           YY(V)           ZZ(V)
     0.00000          0.0000          0.0000          0.0000          0.0000
     0.01000          1.1113          1.1113          1.1113          1.1113
     0.02000          1.1080          1.1080          1.1080          1.1080
     0.03000          1.1054          1.1054          1.1054          1.1054
     0.04000          1.1034          1.1034          1.1034          1.1034
     0.05000          1.1017          1.1017          1.1017          1.1017
     0.06000          1.1002          1.1002          1.1002          1.1002
     0.07000          1.0990          1.0990          1.0990          1.0990
     0.08000          1.0979          1.0979          1.0979          1.0979
     0.09000          1.0970          1.0970          1.0970          1.0970
     0.10000          1.0961          1.0961          1.0961          1.0961
     0.11000          1.0954          1.0954          1.0954          1.0954
     0.12000          1.0947          1.0947          1.0947          1.0947
     0.13000          1.0940          1.0940          1.0940          1.0940
     0.14000          1.0934          1.0934          1.0934          1.0934
     0.15000          1.0929          1.0929          1.0929          1.0929
     0.16000          1.0924          1.0924          1.0924          1.0924
     0.17000          1.0920          1.0920          1.0920          1.0920
     0.18000          1.0916          1.0916          1.0916          1.0916
     0.19000          1.0912          1.0912          1.0912          1.0912
     0.20000          1.0908          1.0908          1.0908          1.0908
     0.21000          1.0905          1.0905          1.0905          1.0905
     0.22000          1.0902          1.0902          1.0902          1.0902
     0.23000          1.0899          1.0899          1.0899          1.0899
     0.24000          1.0896          1.0896          1.0896          1.0896
     0.25000          1.0894          1.0894          1.0894          1.0894
     0.26000          1.0891          1.0891          1.0891          1.0891
     0.27000          1.0889          1.0889          1.0889          1.0889
     0.28000          1.0887          1.0887          1.0887          1.0887
     0.29000          1.0885          1.0885          1.0885          1.0885
     0.30000          1.0883          1.0883          1.0883          1.0883
     0.31000          1.0882          1.0882          1.0882          1.0882
     0.32000          1.0880          1.0880          1.0880          1.0880
     0.33000          1.0879          1.0879          1.0879          1.0879
     0.34000          1.0877          1.0877          1.0877          1.0877
     0.35000          1.0876          1.0876          1.0876          1.0876
     0.36000          1.0875          1.0875          1.0875          1.0875
     0.37000          1.0874          1.0874          1.0874          1.0874
     0.38000          1.0872          1.0872          1.0872          1.0872
     0.39000          1.0871          1.0871          1.0871          1.0871
     0.40000          1.0871          1.0871          1.0871          1.0871
     0.41000          1.0870          1.0870          1.0870          1.0870
     0.42000          1.0869          1.0869          1.0869          1.0869
     0.43000          1.0868          1.0868          1.0868          1.0868
     0.44000          1.0867          1.0867          1.0867          1.0867
     0.45000          1.0867          1.0867          1.0867          1.0867
     0.46000          1.0866          1.0866          1.0866          1.0866
     0.47000          1.0865          1.0865          1.0865          1.0865
     0.48000          1.0865          1.0865          1.0865          1.0865
     0.49000          1.0864          1.0864          1.0864          1.0864
     0.50000          1.0864          1.0864          1.0864          1.0864
     0.51000          1.0863          1.0863          1.0863          1.0863
     0.52000          1.0863          1.0863          1.0863          1.0863
     0.53000          1.0863          1.0863          1.0863          1.0863
     0.54000          1.0862          1.0862          1.0862          1.0862
     0.55000          1.0862          1.0862          1.0862          1.0862
     0.56000          1.0861          1.0861          1.0861          1.0861
     0.57000          1.0861          1.0861          1.0861          1.0861
     0.58000          1.0861          1.0861          1.0861          1.0861
     0.59000          1.0861          1.0861          1.0861          1.0861
     0.60000          1.0860          1.0860          1.0860          1.0860
     0.61000          1.0860          1.0860          1.0860          1.0860
     0.62000          1.0860          1.0860          1.0860          1.0860
     0.63000          1.0860          1.0860          1.0860          1.0860
     0.64000          1.0860          1.0860          1.0860          1.0860
     0.65000          1.0859          1.0859          1.0859          1.0859
     0.66000          1.0859          1.0859          1.0859          1.0859
     0.67000          1.0859          1.0859          1.0859          1.0859
     0.68000          1.0859          1.0859          1.0859          1.0859
     0.69000          1.0859          1.0859          1.0859          1.0859
     0.70000          1.0859          1.0859          1.0859          1.0859
     0.71000          1.0859          1.0859          1.0859          1.0859
     0.72000          1.0858          1.0858          1.0858          1.0858
     0.73000          1.0858          1.0858          1.0858          1.0858
     0.74000          1.0858          1.0858          1.0858          1.0858
     0.75000          1.0858          1.0858          1.0858          1.0858
     0.76000          1.0858          1.0858          1.0858          1.0858
     0.77000          1.0858          1.0858          1.0858          1.0858
     0.78000          1.0858          1.0858          1.0858          1.0858
     0.79000          1.0858          1.0858          1.0858          1.0858
     0.80000          1.0858          1.0858          1.0858          1.0858
     0.81000          1.0858          1.0858          1.0858          1.0858
     0.82000          1.0858          1.0858          1.0858          1.0858
     0.83000          1.0858          1.0858          1.0858          1.0858
     0.84000          1.0858          1.0858          1.0858          1.0858
     0.85000          1.0858          1.0858          1.0858          1.0858
     0.86000          1.0858          1.0858          1.0858          1.0858
     0.87000          1.0858          1.0858          1.0858          1.0858
     0.88000          1.0858          1.0858          1.0858          1.0858
     0.89000          1.0858          1.0858          1.0858          1.0858
     0.90000          1.0858          1.0858          1.0858          1.0858
     0.91000          1.0858          1.0858          1.0858          1.0858
     0.92000          1.0858          1.0858          1.0858          1.0858
     0.93000          1.0858          1.0858          1.0858          1.0858
     0.94000          1.0858          1.0858          1.0858          1.0858
     0.95000          1.0858          1.0858          1.0858          1.0858
     0.96000          1.0858          1.0858          1.0858          1.0858
     0.97000          1.0858          1.0858          1.0858          1.0858
     0.98000          1.0858          1.0858          1.0858          1.0858
     0.99000          1.0858          1.0858          1.0858          1.0858
     1.00000          1.0858          1.0858          1.0858          1.0858
     1.01000          1.0858          1.0858          1.0858          1.0858
     1.02000          1.0858          1.0858          1.0858          1.0858
     1.03000          1.0858          1.0858          1.0858          1.0858
     1.04000          1.0858          1.0858          1.0858          1.0858
     1.05000          1.0858          1.0858          1.0858          1.0858
     1.06000          1.0858          1.0858          1.0858          1.0858
     1.07000          1.0858          1.0858          1.0858          1.0858
     1.08000          1.0858          1.0858          1.0858          1.0858
     1.09000          1.0858          1.0858          1.0858          1.0858
     1.10000          1.0858          1.0858          1.0858          1.0858
     1.11000          1.0858          1.0858          1.0858          1.0858
     1.12000          1.0858          1.0858          1.0858          1.0858
     1.13000          1.0858          1.0858          1.0858          1.0858
     1.14000          1.0858          1.0858          1.0858          1.0858
     1.15000          1.0858          1.0858          1.0858          1.0858
     1.16000          1.0858          1.0858          1.0858          1.0858
     1.17000          1.0858          1.0858          1.0858          1.0858
     1.18000          1.0858          1.0858          1.0858          1.0858
     1.19000          1.0858          1.0858          1.0858          1.0858
     1.20000          1.0858          1.0858          1.0858          1.0858
     1.21000          1.0858          1.0858          1.0858          1.0858
     1.22000          1.0858          1.0858          1.0858          1.0858
     1.23000          1.0858          1.0858          1.0858          1.0858
     1.24000          1.0858          1.0858          1.0858          1.0858
     1.25000          1.0858          1.0858          1.0858          1.0858
     1.26000          1.0858          1.0858          1.0858          1.0858
     1.27000          1.0858          1.0858          1.0858          1.0858
     1.28000          1.0858          1.0858          1.0858          1.0858
     1.29000          1.0859          1.0859          1.0859          1.0859
     1.30000          1.0859          1.0859          1.0859          1.0859
     1.31000          1.0859          1.0859          1.0859          1.0859
     1.32000          1.0859          1.0859          1.0859          1.0859
     1.33000          1.0859          1.0859          1.0859          1.0859
     1.34000          1.0859          1.0859          1.0859          1.0859
     1.35000          1.0859          1.0859          1.0859          1.0859
     1.36000          1.0859          1.0859          1.0859          1.0859
     1.37000          1.0859          1.0859          1.0859          1.0859
     1.38000          1.0859          1.0859          1.0859          1.0859
     1.39000          1.0859          1.0859          1.0859          1.0859
     1.40000          1.0859          1.0859          1.0859          1.0859
     1.41000          1.0859          1.0859          1.0859          1.0859
     1.42000          1.0859          1.0859          1.0859          1.0859
     1.43000          1.0859          1.0859          1.0859          1.0859
     1.44000          1.0859          1.0859          1.0859          1.0859
     1.45000          1.0859          1.0859          1.0859          1.0859
     1.46000          1.0859          1.0859          1.0859          1.0859
     1.47000          1.0859          1.0859          1.0859          1.0859
     1.48000          1.0859          1.0859          1.0859          1.0859
     1.49000          1.0859          1.0859          1.0859          1.0859
     1.50000          1.0859          1.0859          1.0859          1.0859
     1.51000          1.0859          1.0859          1.0859          1.0859
     1.52000          1.0859          1.0859          1.0859          1.0859
     1.53000          1.0859          1.0859          1.0859          1.0859
     1.54000          1.0859          1.0859          1.0859          1.0859
     1.55000          1.0859          1.0859          1.0859          1.0859
     1.56000          1.0859          1.0859          1.0859          1.0859
     1.57000          1.0859          1.0859          1.0859          1.0859
     1.58000          1.0859          1.0859          1.0859          1.0859
     1.59000          1.0859          1.0859          1.0859          1.0859
     1.60000          1.0859          1.0859          1.0859          1.0859
     1.61000          1.0859          1.0859          1.0859          1.0859
     1.62000          1.0859          1.0859          1.0859          1.0859
     1.63000          1.0859          1.0859          1.0859          1.0859
     1.64000          1.0859          1.0859          1.0859          1.0859
     1.65000          1.0859          1.0859          1.0859          1.0859
     1.66000          1.0859          1.0859          1.0859          1.0859
     1.67000          1.0859          1.0859          1.0859          1.0859
     1.68000          1.0859          1.0859          1.0859          1.0859
     1.69000          1.0859          1.0859          1.0859          1.0859
     1.70000          1.0859          1.0859          1.0859          1.0859
     1.71000          1.0859          1.0859          1.0859          1.0859
     1.72000          1.0859          1.0859          1.0859          1.0859
     1.73000          1.0859          1.0859          1.0859          1.0859
     1.74000          1.0859          1.0859          1.0859          1.0859
     1.75000          1.0859          1.0859          1.0859          1.0859
     1.76000          1.0859          1.0859          1.0859          1.0859
     1.77000          1.0859          1.0859          1.0859          1.0859
     1.78000          1.0859          1.0859          1.0859          1.0859
     1.79000          1.0859          1.0859          1.0859          1.0859
     1.80000          1.0859          1.0859          1.0859          1.0859
     1.81000          1.0859          1.0859          1.0859          1.0859
     1.82000          1.0859          1.0859          1.0859          1.0859
     1.83000          1.0859          1.0859          1.0859          1.0859
     1.84000          1.0859          1.0859          1.0859          1.0859
     1.85000          1.0859          1.0859          1.0859          1.0859
     1.86000          1.0859          1.0859          1.0859          1.0859
     1.87000          1.0859          1.0859          1.0859          1.0859
     1.88000          1.0859          1.0859          1.0859          1.0859
     1.89000          1.0859          1.0859          1.0859          1.0859
     1.90000          1.0859          1.0859          1.0859          1.0859
     1.91000          1.0859          1.0859          1.0859          1.0859
     1.92000          1.0859          1.0859          1.0859          1.0859
     1.93000          1.0859          1.0859          1.0859          1.0859
     1.94000          1.0859          1.0859          1.0859          1.0859
     1.95000          1.0859          1.0859          1.0859          1.0859
     1.96000          1.0859          1.0859          1.0859          1.0859
     1.97000          1.0859          1.0859          1.0859          1.0859
     1.98000          1.0859          1.0859          1.0859          1.0859
     1.99000          1.0859          1.0859          1.0859          1.0859
     2.00000          1.0859          1.0859          1.0859          1.0859
     2.01000          1.0859          1.0859          1.0859          1.0859
     2.02000          1.0859          1.0859          1.0859          1.0859
     2.03000          1.0859          1.0859          1.0859          1.0859
     2.04000          1.0859          1.0859          1.0859          1.0859
     2.05000          1.0859          1.0859          1.0859          1.0859
     2.06000          1.0859          1.0859          1.0859          1.0859
     2.07000          1.0859          1.0859          1.0859          1.0859
     2.08000          1.0859          1.0859          1.0859          1.0859
     2.09000          1.0859          1.0859          1.0859          1.0859
     2.10000          1.0859          1.0859          1.0859          1.0859
     2.11000          1.0859          1.0859          1.0859          1.0859
     2.12000          1.0859          1.0859          1.0859          1.0859
     2.13000          1.0859          1.0859          1.0859          1.0859
     2.14000          1.0859          1.0859          1.0859          1.0859
     2.15000          1.0859          1.0859          1.0859          1.0859
     2.16000          1.0859          1.0859          1.0859          1.0859
     2.17000          1.0859          1.0859          1.0859          1.0859
     2.18000          1.0859          1.0859          1.0859          1.0859
     2.19000          1.0859          1.0859          1.0859          1.0859
     2.20000          1.0859          1.0859          1.0859          1.0859
     2.21000          1.0859          1.0859          1.0859          1.0859
     2.22000          1.0859          1.0859          1.0859          1.0859
     2.23000          1.0859          1.0859          1.0859          1.0859
     2.24000          1.0860          1.0860          1.0860          1.0860
     2.25000          1.0860          1.0860          1.0860          1.0860
     2.26000          1.0860          1.0860          1.0860          1.0860
     2.27000          1.0860          1.0860          1.0860          1.0860
     2.28000          1.0860          1.0860          1.0860          1.0860
     2.29000          1.0860          1.0860          1.0860          1.0860
     2.30000          1.0860          1.0860          1.0860          1.0860
     2.31000          1.0860          1.0860          1.0860          1.0860
     2.32000          1.0860          1.0860          1.0860          1.0860
     2.33000          1.0860          1.0860          1.0860          1.0860
     2.34000          1.0860          1.0860          1.0860          1.0860
     2.35000          1.0860          1.0860          1.0860          1.0860
     2.36000          1.0860          1.0860          1.0860          1.0860
     2.37000          1.0860          1.0860          1.0860          1.0860
     2.38000          1.0860          1.0860          1.0860          1.0860
     2.39000          1.0860          1.0860          1.0860          1.0860
     2.40000          1.0860          1.0860          1.0860          1.0860
     2.41000          1.0860          1.0860          1.0860          1.0860
     2.42000          1.0860          1.0860          1.0860          1.0860
     2.43000          1.0860          1.0860          1.0860          1.0860
     2.44000          1.0860          1.0860          1.0860          1.0860
     2.45000          1.0860          1.0860          1.0860          1.0860
     2.46000          1.0860          1.0860          1.0860          1.0860
     2.47000          1.0860          1.0860          1.0860          1.0860
     2.48000          1.0860          1.0860          1.0860          1.0860
     2.49000          1.0860          1.0860          1.0860          1.0860
     2.50000          1.0860          1.0860          1.0860          1.0860
     2.51000          1.0860          1.0860          1.0860          1.0860
     2.52000          1.0860          1.0860          1.0860          1.0860
     2.53000          1.0860          1.0860          1.0860          1.0860
     2.54000          1.0860          1.0860          1.0860          1.0860
     2.55000          1.0860          1.0860          1.0860          1.0860
     2.56000          1.0860          1.0860          1.0860          1.0860
     2.57000          1.0860          1.0860          1.0860          1.0860
     2.58000          1.0860          1.0860          1.0860          1.0860
     2.59000          1.0860          1.0860          1.0860          1.0860
     2.60000          1.0860          1.0860          1.0860          1.0860
     2.61000          1.0860          1.0860          1.0860          1.0860
     2.62000          1.0860          1.0860          1.0860          1.0860
     2.63000          1.0860          1.0860          1.0860          1.0860
     2.64000          1.0860          1.0860          1.0860          1.0860
     2.65000          1.0860          1.0860          1.0860          1.0860
     2.66000          1.0860          1.0860          1.0860          1.0860
     2.67000          1.0860          1.0860          1.0860          1.0860
     2.68000          1.0860          1.0860          1.0860          1.0860
     2.69000          1.0860          1.0860          1.0860          1.0860
     2.70000          1.0860          1.0860          1.0860          1.0860
     2.71000          1.0860          1.0860          1.0860          1.0860
     2.72000          1.0860          1.0860          1.0860          1.0860
     2.73000          1.0860          1.0860          1.0860          1.0860
     2.74000          1.0860          1.0860          1.0860          1.0860
     2.75000          1.0860          1.0860          1.0860          1.0860
     2.76000          1.0860          1.0860          1.0860          1.0860
     2.77000          1.0860          1.0860          1.0860          1.0860
     2.78000          1.0860          1.0860          1.0860          1.0860
     2.79000          1.0860          1.0860          1.0860          1.0860
     2.80000          1.0860          1.0860          1.0860          1.0860
     2.81000          1.0860          1.0860          1.0860          1.0860
     2.82000          1.0860          1.0860          1.0860          1.0860
     2.83000          1.0860          1.0860          1.0860          1.0860
     2.84000          1.0860          1.0860          1.0860          1.0860
     2.85000          1.0860          1.0860          1.0860          1.0860
     2.86000          1.0860          1.0860          1.0860          1.0860
     2.87000          1.0860          1.0860          1.0860          1.0860
     2.88000          1.0860          1.0860          1.0860          1.0860
     2.89000          1.0860          1.0860          1.0860          1.0860
     2.90000          1.0860          1.0860          1.0860          1.0860
     2.91000          1.0860          1.0860          1.0860          1.0860
     2.92000          1.0860          1.0860          1.0860          1.0860
     2.93000          1.0860          1.0860          1.0860          1.0860
     2.94000          1.0860          1.0860          1.0860          1.0860
     2.95000          1.0860          1.0860          1.0860          1.0860
     2.96000          1.0860          1.0860          1.0860          1.0860
     2.97000          1.0860          1.0860          1.0860          1.0860
     2.98000          1.0860          1.0860          1.0860          1.0860
     2.99000          1.0860          1.0860          1.0860          1.0860
     3.00000          1.0860          1.0860          1.0860          1.0860
     3.01000          1.0860          1.0860          1.0860          1.0860
     3.02000          1.0860          1.0860          1.0860          1.0860
     3.03000          1.0860          1.0860          1.0860          1.0860
     3.04000          1.0860          1.0860          1.0860          1.0860
     3.05000          1.0860          1.0860          1.0860          1.0860
     3.06000          1.0860          1.0860          1.0860          1.0860
     3.07000          1.0860          1.0860          1.0860          1.0860
     3.08000          1.0860          1.0860          1.0860          1.0860
     3.09000          1.0860          1.0860          1.0860          1.0860
     3.10000          1.0860          1.0860          1.0860          1.0860
     3.11000          1.0860          1.0860          1.0860          1.0860
     3.12000          1.0860          1.0860          1.0860          1.0860
     3.13000          1.0860          1.0860          1.0860          1.0860
     3.14000          1.0860          1.0860          1.0860          1.0860
     3.15000          1.0860          1.0860          1.0860          1.0860
     3.16000          1.0860          1.0860          1.0860          1.0860
     3.17000          1.0860          1.0860          1.0860          1.0860
     3.18000          1.0860          1.0860          1.0860          1.0860
     3.19000          1.0860          1.0860          1.0860          1.0860
     3.20000          1.0860          1.0860          1.0860          1.0860
     3.21000          1.0860          1.0860          1.0860          1.0860
     3.22000          1.0860          1.0860          1.0860          1.0860
     3.23000          1.0860          1.0860          1.0860          1.0860
     3.24000          1.0860          1.0860          1.0860          1.0860
     3.25000          1.0860          1.0860          1.0860          1.0860
     3.26000          1.0860          1.0860          1.0860          1.0860
     3.27000          1.0860          1.0860          1.0860          1.0860
     3.28000          1.0860          1.0860          1.0860          1.0860
     3.29000          1.0860          1.0860          1.0860          1.0860
     3.30000          1.0860          1.0860          1.0860          1.0860
     3.31000          1.0860          1.0860          1.0860          1.0860
     3.32000          1.0860          1.0860          1.0860          1.0860
     3.33000          1.0860          1.0860          1.0860          1.0860
     3.34000          1.0860          1.0860          1.0860          1.0860
     3.35000          1.0860          1.0860          1.0860          1.0860
     3.36000          1.0860          1.0860          1.0860          1.0860
     3.37000          1.0860          1.0860          1.0860          1.0860
     3.38000          1.0860          1.0860          1.0860          1.0860
     3.39000          1.0860          1.0860          1.0860          1.0860
     3.40000          1.0860          1.0860          1.0860          1.0860
     3.41000          1.0860          1.0860          1.0860          1.0860
     3.42000          1.0860          1.0860          1.0860          1.0860
     3.43000          1.0860          1.0860          1.0860          1.0860
     3.44000          1.0860          1.0860          1.0860          1.0860
     3.45000          1.0860          1.0860          1.0860          1.0860
     3.46000          1.0860          1.0860          1.0860          1.0860
     3.47000          1.0860          1.0860          1.0860          1.0860
     3.48000          1.0860          1.0860          1.0860          1.0860
     3.49000          1.0860          1.0860          1.0860          1.0860
     3.50000          1.0860          1.0860          1.0860          1.0860
     3.51000          1.0860          1.0860          1.0860          1.0860
     3.52000          1.0860          1.0860          1.0860          1.0860
     3.53000          1.0860          1.0860          1.0860          1.0860
     3.54000          1.0860          1.0860          1.0860          1.0860
     3.55000          1.0860          1.0860          1.0860          1.0860
     3.56000          1.0860          1.0860          1.0860          1.0860
     3.57000          1.0860          1.0860          1.0860          1.0860
     3.58000          1.0860          1.0860          1.0860          1.0860
     3.59000          1.0860          1.0860          1.0860          1.0860
     3.60000          1.0860          1.0860          1.0860          1.0860
     3.61000          1.0860          1.0860          1.0860          1.0860
     3.62000          1.0860          1.0860          1.0860          1.0860
     3.63000          1.0860          1.0860          1.0860          1.0860
     3.64000          1.0860          1.0860          1.0860          1.0860
     3.65000          1.0860          1.0860          1.0860          1.0860
     3.66000          1.0860          1.0860          1.0860          1.0860
     3.67000          1.0860          1.0860          1.0860          1.0860
     3.68000          1.0860          1.0860          1.0860          1.0860
     3.69000          1.0860          1.0860          1.0860          1.0860
     3.70000          1.0860          1.0860          1.0860          1.0860
     3.71000          1.0860          1.0860          1.0860          1.0860
     3.72000          1.0860          1.0860          1.0860          1.0860
     3.73000          1.0860          1.0860          1.0860          1.0860
     3.74000          1.0860          1.0860          1.0860          1.0860
     3.75000          1.0860          1.0860          1.0860          1.0860
     3.76000          1.0860          1.0860          1.0860          1.0860
     3.77000          1.0860          1.0860          1.0860          1.0860
     3.78000          1.0860          1.0860          1.0860          1.0860
     3.79000          1.0860          1.0860          1.0860          1.0860
     3.80000          1.0860          1.0860          1.0860          1.0860
     3.81000          1.0860          1.0860          1.0860          1.0860
     3.82000          1.0860          1.0860          1.0860          1.0860
     3.83000          1.0860          1.0860          1.0860          1.0860
     3.84000          1.0860          1.0860          1.0860          1.0860
     3.85000          1.0860          1.0860          1.0860          1.0860
     3.86000          1.0860          1.0860          1.0860          1.0860
     3.87000          1.0860          1.0860          1.0860          1.0860
     3.88000          1.0860          1.0860          1.0860          1.0860
     3.89000          1.0860          1.0860          1.0860          1.0860
     3.90000          1.0860          1.0860          1.0860          1.0860
     3.91000          1.0860          1.0860          1.0860          1.0860
     3.92000          1.0860          1.0860          1.0860          1.0860
     3.93000          1.0860          1.0860          1.0860          1.0860
     3.94000          1.0860          1.0860          1.0860          1.0860
     3.95000          1.0860          1.0860          1.0860          1.0860
     3.96000          1.0860          1.0860          1.0860          1.0860
     3.97000          1.0860          1.0860          1.0860          1.0860
     3.98000          1.0860          1.0860          1.0860          1.0860
     3.99000          1.0860          1.0860          1.0860          1.0860
     4.00000          1.0860          1.0860          1.0860          1.0860
     4.01000          1.0860          1.0860          1.0860          1.0860
     4.02000          1.0860          1.0860          1.0860          1.0860
     4.03000          1.0860          1.0860          1.0860          1.0860
     4.04000          1.0860          1.0860          1.0860          1.0860
     4.05000          1.0860          1.0860          1.0860          1.0860
     4.06000          1.0860          1.0860          1.0860          1.0860
     4.07000          1.0860          1.0860          1.0860          1.0860
     4.08000          1.0860          1.0860          1.0860          1.0860
     4.09000          1.0860          1.0860          1.0860          1.0860
     4.10000          1.0860          1.0860          1.0860          1.0860
     4.11000          1.0860          1.0860          1.0860          1.0860
     4.12000          1.0860          1.0860          1.0860          1.0860
     4.13000          1.0860          1.0860          1.0860          1.0860
     4.14000          1.0860          1.0860          1.0860          1.0860
     4.15000          1.0860          1.0860          1.0860          1.0860
     4.16000          1.0860          1.0860          1.0860          1.0860
     4.17000          1.0860          1.0860          1.0860          1.0860
     4.18000          1.0860          1.0860          1.0860          1.0860
     4.19000          1.0860          1.0860          1.0860          1.0860
     4.20000          1.0860          1.0860          1.0860          1.0860
     4.21000          1.0860          1.0860          1.0860          1.0860
     4.22000          1.0860          1.0860          1.0860          1.0860
     4.23000          1.0860          1.0860          1.0860          1.0860
     4.24000          1.0860          1.0860          1.0860          1.0860
     4.25000          1.0860          1.0860          1.0860          1.0860
     4.26000          1.0860          1.0860          1.0860          1.0860
     4.27000          1.0860          1.0860          1.0860          1.0860
     4.28000          1.0860          1.0860          1.0860          1.0860
     4.29000          1.0860          1.0860          1.0860          1.0860
     4.30000          1.0860          1.0860          1.0860          1.0860
     4.31000          1.0860          1.0860          1.0860          1.0860
     4.32000          1.0860          1.0860          1.0860          1.0860
     4.33000          1.0860          1.0860          1.0860          1.0860
     4.34000          1.0860          1.0860          1.0860          1.0860
     4.35000          1.0860          1.0860          1.0860          1.0860
     4.36000          1.0860          1.0860          1.0860          1.0860
     4.37000          1.0860          1.0860          1.0860          1.0860
     4.38000          1.0860          1.0860          1.0860          1.0860
     4.39000          1.0860          1.0860          1.0860          1.0860
     4.40000          1.0860          1.0860          1.0860          1.0860
     4.41000          1.0860          1.0860          1.0860          1.0860
     4.42000          1.0860          1.0860          1.0860          1.0860
     4.43000          1.0860          1.0860          1.0860          1.0860
     4.44000          1.0860          1.0860          1.0860          1.0860
     4.45000          1.0860          1.0860          1.0860          1.0860
     4.46000          1.0860          1.0860          1.0860          1.0860
     4.47000          1.0860          1.0860          1.0860          1.0860
     4.48000          1.0860          1.0860          1.0860          1.0860
     4.49000          1.0860          1.0860          1.0860          1.0860
     4.50000          1.0860          1.0860          1.0860          1.0860
     4.51000          1.0860          1.0860          1.0860          1.0860
     4.52000          1.0860          1.0860          1.0860          1.0860
     4.53000          1.0860          1.0860          1.0860          1.0860
     4.54000          1.0860          1.0860          1.0860          1.0860
     4.55000          1.0860          1.0860          1.0860          1.0860
     4.56000          1.0860          1.0860          1.0860          1.0860
     4.57000          1.0860          1.0860          1.0860          1.0860
     4.58000          1.0860          1.0860          1.0860          1.0860
     4.59000          1.0860          1.0860          1.0860          1.0860
     4.60000          1.0860          1.0860          1.0860          1.0860
     4.61000          1.0860          1.0860          1.0860          1.0860
     4.62000          1.0860          1.0860          1.0860          1.0860
     4.63000          1.0860          1.0860          1.0860          1.0860
     4.64000          1.0860          1.0860          1.0860          1.0860
     4.65000          1.0860          1.0860          1.0860          1.0860
     4.66000          1.0860          1.0860          1.0860          1.0860
     4.67000          1.0860          1.0860          1.0860          1.0860
     4.68000          1.0860          1.0860          1.0860          1.0860
     4.69000          1.0860          1.0860          1.0860          1.0860
     4.70000          1.0860          1.0860          1.0860          1.0860
     4.71000          1.0860          1.0860          1.0860          1.0860
     4.72000          1.0860          1.0860          1.0860          1.0860
     4.73000          1.0860          1.0860          1.0860          1.0860
     4.74000          1.0860          1.0860          1.0860          1.0860
     4.75000          1.0860          1.0860          1.0860          1.0860
     4.76000          1.0860          1.0860          1.0860          1.0860
     4.77000          1.0860          1.0860          1.0860          1.0860
     4.78000          1.0860          1.0860          1.0860          1.0860
     4.79000          1.0860          1.0860          1.0860          1.0860
     4.80000          1.0860          1.0860          1.0860          1.0860
     4.81000          1.0860          1.0860          1.0860          1.0860
     4.82000          1.0860          1.0860          1.0860          1.0860
     4.83000          1.0860          1.0860          1.0860          1.0860
     4.84000          1.0860          1.0860          1.0860          1.0860
     4.85000          1.0860          1.0860          1.0860          1.0860
     4.86000          1.0860          1.0860          1.0860          1.0860
     4.87000          1.0860          1.0860          1.0860          1.0860
     4.88000          1.0860          1.0860          1.0860          1.0860
     4.89000          1.0860          1.0860          1.0860          1.0860
     4.90000          1.0860          1.0860          1.0860          1.0860
     4.91000          1.0860          1.0860          1.0860          1.0860
     4.92000          1.0860          1.0860          1.0860          1.0860
     4.93000          1.0860          1.0860          1.0860          1.0860
     4.94000          1.0860          1.0860          1.0860          1.0860
     4.95000          1.0860          1.0860          1.0860          1.0860
     4.96000          1.0860          1.0860          1.0860          1.0860
     4.97000          1.0860          1.0860          1.0860          1.0860
     4.98000          1.0860          1.0860          1.0860          1.0860
     4.99000          1.0860          1.0860          1.0860          1.0860
     5.00000          1.0860          1.0860          1.0860          1.0860
