 vasp.5.4.4.18Apr17-6-g9f103f2a35 (build Jul 20 2018 16:55:51) complex          
  
 executed on  paragrid2-intel-MKL date 2018.12.13  21:29:34
 running on   40 total cores
 distrk:  each k-point on   40 cores,    1 groups
 distr:  one band on NCORES_PER_BAND=   5 cores,    8 groups


--------------------------------------------------------------------------------------------------------


 INCAR:
 POTCAR:    PAW_PBE Au 04Oct2007                  
 POTCAR:    PAW_PBE O 08Apr2002                   
 POTCAR:    PAW_PBE Au 04Oct2007                  
   VRHFIN =Au: s1d10                                                            
   LEXCH  = PE                                                                  
   EATOM  =   926.0867 eV,   68.0654 Ry                                         
                                                                                
   TITEL  = PAW_PBE Au 04Oct2007                                                
   LULTRA =        F    use ultrasoft PP ?                                      
   IUNSCR =        1    unscreen: 0-lin 1-nonlin 2-no                           
   RPACOR =    2.330    partial core radius                                     
   POMASS =  196.966; ZVAL   =   11.000    mass and valenz                      
   RCORE  =    2.500    outmost cutoff radius                                   
   RWIGS  =    2.840; RWIGS  =    1.503    wigner-seitz radius (au A)           
   ENMAX  =  229.943; ENMIN  =  172.457 eV                                      
   ICORE  =        3    local potential                                         
   LCOR   =        T    correct aug charges                                     
   LPAW   =        T    paw PP                                                  
   EAUG   =  356.670                                                            
   DEXC   =    0.000                                                            
   RMAX   =    2.562    core radius for proj-oper                               
   RAUG   =    1.300    factor for augmentation sphere                          
   RDEP   =    2.598    radius for radial grids                                 
   RDEPT  =    2.193    core radius for aug-charge                              
                                                                                
   Atomic configuration                                                         
   16 entries                                                                   
     n  l   j            E        occ.                                          
     1  0  0.50    -80748.5001   2.0000                                         
     2  0  0.50    -14244.7466   2.0000                                         
     2  1  1.50    -12310.9591   6.0000                                         
     3  0  0.50     -3362.1768   2.0000                                         
     3  1  1.50     -2801.5463   6.0000                                         
     3  2  2.50     -2203.8206  10.0000                                         
     4  0  0.50      -729.8168   2.0000                                         
     4  1  1.50      -546.0527   6.0000                                         
     4  2  2.50      -325.7302  10.0000                                         
     4  3  3.50       -81.1472  14.0000                                         
     5  0  0.50      -108.3201   2.0000                                         
     5  1  1.50       -59.7479   6.0000                                         
     5  2  2.50        -6.8783  10.0000                                         
     6  0  0.50        -5.7602   1.0000                                         
     6  1  1.50        -6.8029   0.0000                                         
     5  3  2.50        -1.3606   0.0000                                         
   Description                                                                  
     l       E           TYP  RCUT    TYP  RCUT                                 
     2     -6.8782861     23  2.500                                             
     2     -8.2388687     23  2.500                                             
     0     -5.7601759     23  2.500                                             
     0     -0.8493231     23  2.500                                             
     1     -2.7211652     23  2.500                                             
     1     27.2116520     23  2.500                                             
     3     -1.3605826     23  2.500                                             
  local pseudopotential read in
  partial core-charges read in
  partial kinetic energy density read in
  atomic valenz-charges read in
  non local Contribution for L=           2  read in
    real space projection operators read in
  non local Contribution for L=           2  read in
    real space projection operators read in
  non local Contribution for L=           0  read in
    real space projection operators read in
  non local Contribution for L=           0  read in
    real space projection operators read in
  non local Contribution for L=           1  read in
    real space projection operators read in
  non local Contribution for L=           1  read in
    real space projection operators read in
    PAW grid and wavefunctions read in
 
   number of l-projection  operators is LMAX  =           6
   number of lm-projection operators is LMMAX =          18
 
 POTCAR:    PAW_PBE O 08Apr2002                   
   VRHFIN =O: s2p4                                                              
   LEXCH  = PE                                                                  
   EATOM  =   432.3788 eV,   31.7789 Ry                                         
                                                                                
   TITEL  = PAW_PBE O 08Apr2002                                                 
   LULTRA =        F    use ultrasoft PP ?                                      
   IUNSCR =        1    unscreen: 0-lin 1-nonlin 2-no                           
   RPACOR =    1.200    partial core radius                                     
   POMASS =   16.000; ZVAL   =    6.000    mass and valenz                      
   RCORE  =    1.520    outmost cutoff radius                                   
   RWIGS  =    1.550; RWIGS  =    0.820    wigner-seitz radius (au A)           
   ENMAX  =  400.000; ENMIN  =  300.000 eV                                      
   ICORE  =        2    local potential                                         
   LCOR   =        T    correct aug charges                                     
   LPAW   =        T    paw PP                                                  
   EAUG   =  605.392                                                            
   DEXC   =    0.000                                                            
   RMAX   =    1.553    core radius for proj-oper                               
   RAUG   =    1.300    factor for augmentation sphere                          
   RDEP   =    1.550    radius for radial grids                                 
   RDEPT  =    1.329    core radius for aug-charge                              
                                                                                
   Atomic configuration                                                         
    4 entries                                                                   
     n  l   j            E        occ.                                          
     1  0  0.50      -514.6923   2.0000                                         
     2  0  0.50       -23.9615   2.0000                                         
     2  1  0.50        -9.0305   4.0000                                         
     3  2  1.50        -9.5241   0.0000                                         
   Description                                                                  
     l       E           TYP  RCUT    TYP  RCUT                                 
     0    -23.9615318     23  1.200                                             
     0     -9.5240782     23  1.200                                             
     1     -9.0304911     23  1.520                                             
     1      8.1634956     23  1.520                                             
     2     -9.5240782      7  1.500                                             
  local pseudopotential read in
  partial core-charges read in
  partial kinetic energy density read in
  kinetic energy density of atom read in
  atomic valenz-charges read in
  non local Contribution for L=           0  read in
    real space projection operators read in
  non local Contribution for L=           0  read in
    real space projection operators read in
  non local Contribution for L=           1  read in
    real space projection operators read in
  non local Contribution for L=           1  read in
    real space projection operators read in
    PAW grid and wavefunctions read in
 
   number of l-projection  operators is LMAX  =           4
   number of lm-projection operators is LMMAX =           8
 
 Optimization of the real space projectors (new method)

 maximal supplied QI-value         = 15.12
 optimisation between [QCUT,QGAM] = [ 10.13, 20.41] = [ 28.73,116.64] Ry 
 Optimized for a Real-space Cutoff    1.51 Angstroem

   l    n(q)    QCUT    max X(q) W(low)/X(q) W(high)/X(q)  e(spline) 
   2      8    10.129    60.898    0.46E-03    0.46E-03    0.14E-06
   2      8    10.129    58.894    0.47E-03    0.47E-03    0.14E-06
   0      9    10.129   109.617    0.16E-03    0.11E-03    0.54E-07
   0      9    10.129    75.026    0.15E-03    0.11E-03    0.52E-07
   1      9    10.129    16.344    0.96E-04    0.15E-03    0.14E-06
   1      9    10.129    10.160    0.81E-04    0.12E-03    0.11E-06
 Optimization of the real space projectors (new method)

 maximal supplied QI-value         = 24.76
 optimisation between [QCUT,QGAM] = [ 10.15, 20.30] = [ 28.85,115.39] Ry 
 Optimized for a Real-space Cutoff    1.38 Angstroem

   l    n(q)    QCUT    max X(q) W(low)/X(q) W(high)/X(q)  e(spline) 
   0      8    10.150    20.381    0.22E-03    0.32E-03    0.29E-06
   0      8    10.150    15.268    0.23E-03    0.35E-03    0.30E-06
   1      8    10.150     5.964    0.46E-03    0.53E-03    0.21E-06
   1      8    10.150     5.382    0.38E-03    0.45E-03    0.19E-06
  PAW_PBE Au 04Oct2007                  :
 energy of atom  1       EATOM= -926.0867
 kinetic energy error for atom=    0.0062 (will be added to EATOM!!)
  PAW_PBE O 08Apr2002                   :
 energy of atom  2       EATOM= -432.3788
 kinetic energy error for atom=    0.1156 (will be added to EATOM!!)
 
 
 POSCAR: optAu111                                
  positions in direct lattice
  velocities in cartesian coordinates
 exchange correlation table for  LEXCH =        8
   RHO(1)=    0.500       N(1)  =     2000
   RHO(2)=  100.500       N(2)  =     4000
 


--------------------------------------------------------------------------------------------------------


 ion  position               nearest neighbor table
   1  0.333  0.667  0.041-  11 2.94  16 2.94   6 2.94  11 2.94  16 2.94   6 2.94  17 2.94   7 2.94
                            12 2.94
   2  0.000  0.000  0.138-  13 2.93  18 2.93   8 2.93  12 2.94  12 2.94  17 2.94  17 2.94   7 2.94
                             7 2.94  16 2.94   6 2.94  11 2.94
   3  0.665  0.333  0.234-  14 2.89  19 2.89   9 2.90  12 2.91  17 2.91   7 2.91  18 2.94  13 2.94
                             8 2.94   8 2.94  13 2.94  18 2.94
   4  0.331  0.666  0.335-  20 2.89  10 2.89  15 2.89  14 2.94   9 2.94  19 2.94  19 2.94   9 2.94
                            14 2.94  13 2.98  18 2.98   8 2.99
   5  0.996  0.999  0.422-  19 2.83  14 2.83   9 2.83  20 2.95  10 2.95  15 2.95  15 2.95  10 2.95
                            20 2.96
   6  0.333  0.167  0.041-  11 2.94   1 2.94  16 2.94  16 2.94  11 2.94   1 2.94   2 2.94  12 2.94
                            17 2.94
   7  0.000  0.500  0.138-   3 2.91  18 2.92  13 2.92  17 2.94  17 2.94  12 2.94  12 2.94   2 2.94
                             2 2.94   1 2.94  11 2.94  16 2.94
   8  0.664  0.832  0.235-  19 2.90  14 2.91  17 2.92  13 2.92  12 2.92  18 2.92   2 2.93   3 2.94
                             3 2.94  18 2.95  13 2.96   4 2.99
   9  0.335  0.168  0.331-   5 2.83  14 2.90  19 2.90   3 2.90  18 2.90  13 2.91   4 2.94   4 2.94
                            19 2.97  14 2.98  15 3.07  20 3.08
  10  0.018  0.510  0.433-  21 2.11  20 2.74  15 2.74   4 2.89   5 2.95   5 2.95  14 3.07  19 3.08
                            15 3.13  20 3.13
  11  0.833  0.167  0.041-   1 2.94   6 2.94  16 2.94   1 2.94   6 2.94  16 2.94  17 2.94   7 2.94
                             2 2.94
  12  0.500  0.500  0.138-   3 2.91   8 2.92  18 2.92   2 2.94   2 2.94   7 2.94   7 2.94  17 2.94
                            17 2.94  16 2.94   6 2.94   1 2.94
  13  0.167  0.832  0.235-   9 2.91  19 2.91  18 2.92   8 2.92   7 2.92  17 2.92   2 2.93   3 2.94
                             3 2.94   8 2.96  18 2.96   4 2.98
  14  0.828  0.168  0.330-   5 2.83   3 2.89   9 2.90  19 2.90   8 2.91  18 2.91   4 2.94   4 2.94
                            19 2.98   9 2.98  10 3.07  20 3.08
  15  0.486  0.509  0.434-  21 2.11  10 2.74  20 2.74   4 2.89   5 2.95   5 2.95   9 3.07  19 3.08
                            20 3.13  10 3.13
  16  0.833  0.667  0.041-   1 2.94  11 2.94   6 2.94   6 2.94   1 2.94  11 2.94  12 2.94   2 2.94
                             7 2.94
  17  0.500  0.000  0.138-   3 2.91   8 2.92  13 2.92   7 2.94   7 2.94   2 2.94   2 2.94  12 2.94
                            12 2.94  11 2.94   1 2.94   6 2.94
  18  0.167  0.335  0.235-   9 2.90  14 2.91   7 2.92  13 2.92   8 2.92  12 2.92   2 2.93   3 2.94
                             3 2.94   8 2.95  13 2.96   4 2.98
  19  0.828  0.662  0.330-   5 2.83   3 2.89  14 2.90   9 2.90   8 2.90  13 2.91   4 2.94   4 2.94
                             9 2.97  14 2.98  10 3.08  15 3.08
  20  0.486  0.977  0.434-  21 2.11  10 2.74  15 2.74   4 2.89   5 2.95   5 2.96   9 3.08  14 3.08
                            15 3.13  10 3.13
  21  0.663  0.332  0.478-  15 2.11  20 2.11  10 2.11
 

IMPORTANT INFORMATION: All symmetrisations will be switched off!
NOSYMM: (Re-)initialisation of all symmetry stuff for point group C_1.

 
 
 KPOINTS: Name # first line                       

Automatic generation of k-mesh.
Space group operators:
 irot       det(A)        alpha          n_x          n_y          n_z        tau_x        tau_y        tau_z
    1     1.000000     0.000000     1.000000     0.000000     0.000000     0.000000     0.000000     0.000000
 
 Subroutine IBZKPT returns following result:
 ===========================================
 
 Found     25 irreducible k-points:
 
 Following reciprocal coordinates:
            Coordinates               Weight
  0.000000  0.000000  0.000000      1.000000
  0.142857  0.000000  0.000000      2.000000
  0.285714  0.000000  0.000000      2.000000
  0.428571  0.000000  0.000000      2.000000
  0.000000  0.142857  0.000000      2.000000
  0.142857  0.142857  0.000000      2.000000
  0.285714  0.142857  0.000000      2.000000
  0.428571  0.142857  0.000000      2.000000
 -0.428571  0.142857  0.000000      2.000000
 -0.285714  0.142857  0.000000      2.000000
 -0.142857  0.142857  0.000000      2.000000
  0.000000  0.285714  0.000000      2.000000
  0.142857  0.285714  0.000000      2.000000
  0.285714  0.285714  0.000000      2.000000
  0.428571  0.285714  0.000000      2.000000
 -0.428571  0.285714  0.000000      2.000000
 -0.285714  0.285714  0.000000      2.000000
 -0.142857  0.285714  0.000000      2.000000
  0.000000  0.428571  0.000000      2.000000
  0.142857  0.428571  0.000000      2.000000
  0.285714  0.428571  0.000000      2.000000
  0.428571  0.428571  0.000000      2.000000
 -0.428571  0.428571  0.000000      2.000000
 -0.285714  0.428571  0.000000      2.000000
 -0.142857  0.428571  0.000000      2.000000
 
 Following cartesian coordinates:
            Coordinates               Weight
  0.000000  0.000000  0.000000      1.000000
  0.024323  0.014043  0.000000      2.000000
  0.048645  0.028085  0.000000      2.000000
  0.072968  0.042128  0.000000      2.000000
  0.000000  0.028085  0.000000      2.000000
  0.024323  0.042128  0.000000      2.000000
  0.048645  0.056171  0.000000      2.000000
  0.072968  0.070214  0.000000      2.000000
 -0.072968 -0.014043  0.000000      2.000000
 -0.048645 -0.000000  0.000000      2.000000
 -0.024323  0.014043  0.000000      2.000000
  0.000000  0.056171  0.000000      2.000000
  0.024323  0.070214  0.000000      2.000000
  0.048645  0.084256  0.000000      2.000000
  0.072968  0.098299  0.000000      2.000000
 -0.072968  0.014043  0.000000      2.000000
 -0.048645  0.028085  0.000000      2.000000
 -0.024323  0.042128  0.000000      2.000000
  0.000000  0.084256  0.000000      2.000000
  0.024323  0.098299  0.000000      2.000000
  0.048645  0.112342  0.000000      2.000000
  0.072968  0.126385  0.000000      2.000000
 -0.072968  0.042128  0.000000      2.000000
 -0.048645  0.056171  0.000000      2.000000
 -0.024323  0.070214  0.000000      2.000000
 


--------------------------------------------------------------------------------------------------------




 Dimension of arrays:
   k-points           NKPTS =     25   k-points in BZ     NKDIM =     25   number of bands    NBANDS=    136
   number of dos      NEDOS =    301   number of ions     NIONS =     21
   non local maximal  LDIM  =      6   non local SUM 2l+1 LMDIM =     18
   total plane-waves  NPLWV = 108000
   max r-space proj   IRMAX =   2163   max aug-charges    IRDMAX=   9188
   dimension x,y,z NGX =    30 NGY =   30 NGZ =  120
   dimension x,y,z NGXF=    60 NGYF=   60 NGZF=  240
   support grid    NGXF=    60 NGYF=   60 NGZF=  240
   ions per type =              20   1
   NGX,Y,Z   is equivalent  to a cutoff of   8.49,  8.49,  8.11 a.u.
   NGXF,Y,Z  is equivalent  to a cutoff of  16.98, 16.98, 16.22 a.u.

 SYSTEM =  Au                                      
 POSCAR =  optAu111                                

 Startparameter for this run:
   NWRITE =      2    write-flag & timer
   PREC   = normal    normal or accurate (medium, high low for compatibility)
   ISTART =      0    job   : 0-new  1-cont  2-samecut
   ICHARG =      1    charge: 1-file 2-atom 10-const
   ISPIN  =      1    spin polarized calculation?
   LNONCOLLINEAR =      F non collinear calculations
   LSORBIT =      F    spin-orbit coupling
   INIWAV =      1    electr: 0-lowe 1-rand  2-diag
   LASPH  =      F    aspherical Exc in radial PAW
   METAGGA=      F    non-selfconsistent MetaGGA calc.

 Electronic Relaxation 1
   ENCUT  =  400.0 eV  29.40 Ry    5.42 a.u.   9.58  9.58 40.10*2*pi/ulx,y,z
   ENINI  =  400.0     initial cutoff
   ENAUG  =  605.4 eV  augmentation charge cutoff
   NELM   =    300;   NELMIN=  5; NELMDL=  0     # of ELM steps 
   EDIFF  = 0.1E-05   stopping-criterion for ELM
   LREAL  =      T    real-space projection
   NLSPLINE    = F    spline interpolate recip. space projectors
   LCOMPAT=      F    compatible to vasp.4.4
   GGA_COMPAT  = T    GGA compatible to vasp.4.4-vasp.4.6
   LMAXPAW     = -100 max onsite density
   LMAXMIX     =    2 max onsite mixed and CHGCAR
   VOSKOWN=      0    Vosko Wilk Nusair interpolation
   ROPT   =   -0.00050  -0.00050
 Ionic relaxation
   EDIFFG = -.1E-01   stopping-criterion for IOM
   NSW    =      0    number of steps for IOM
   NBLOCK =      1;   KBLOCK =      1    inner block; outer block 
   IBRION =     -1    ionic relax: 0-MD 1-quasi-New 2-CG
   NFREE  =      1    steps in history (QN), initial steepest desc. (CG)
   ISIF   =      2    stress and relaxation
   IWAVPR =     10    prediction:  0-non 1-charg 2-wave 3-comb
   ISYM   =      0    0-nonsym 1-usesym 2-fastsym
   LCORR  =      T    Harris-Foulkes like correction to forces

   POTIM  = 0.2000    time-step for ionic-motion
   TEIN   =    0.0    initial temperature
   TEBEG  =    0.0;   TEEND  =   0.0 temperature during run
   SMASS  =  -3.00    Nose mass-parameter (am)
   estimated Nose-frequenzy (Omega)   =  0.10E-29 period in steps =****** mass=  -0.788E-27a.u.
   SCALEE = 1.0000    scale energy and forces
   NPACO  =    256;   APACO  = 16.0  distance and # of slots for P.C.
   PSTRESS=    0.0 pullay stress

  Mass of Ions in am
   POMASS = 196.97 16.00
  Ionic Valenz
   ZVAL   =  11.00  6.00
  Atomic Wigner-Seitz radii
   RWIGS  =  -1.00 -1.00
  virtual crystal weights 
   VCA    =   1.00  1.00
   NELECT =     226.0000    total number of electrons
   NUPDOWN=      -1.0000    fix difference up-down

 DOS related values:
   EMIN   =  10.00;   EMAX   =-10.00  energy-range for DOS
   EFERMI =   0.00
   ISMEAR =     1;   SIGMA  =   0.20  broadening in eV -4-tet -1-fermi 0-gaus

 Electronic relaxation 2 (details)
   IALGO  =     38    algorithm
   LDIAG  =      T    sub-space diagonalisation (order eigenvalues)
   LSUBROT=      F    optimize rotation matrix (better conditioning)
   TURBO    =      0    0=normal 1=particle mesh
   IRESTART =      0    0=no restart 2=restart with 2 vectors
   NREBOOT  =      0    no. of reboots
   NMIN     =      0    reboot dimension
   EREF     =   0.00    reference energy to select bands
   IMIX   =      4    mixing-type and parameters
     AMIX     =   0.40;   BMIX     =  1.00
     AMIX_MAG =   1.60;   BMIX_MAG =  1.00
     AMIN     =   0.10
     WC   =   100.;   INIMIX=   1;  MIXPRE=   1;  MAXMIX= -45

 Intra band minimization:
   WEIMIN = 0.0000     energy-eigenvalue tresh-hold
   EBREAK =  0.18E-08  absolut break condition
   DEPER  =   0.30     relativ break condition  

   TIME   =   0.40     timestep for ELM

  volume/ion in A,a.u.               =      34.98       236.08
  Fermi-wavevector in a.u.,A,eV,Ry     =   1.105133  2.088398 16.617047  1.221318
  Thomas-Fermi vector in A             =   2.241616
 
 Write flags
   LWAVE        =      T    write WAVECAR
   LDOWNSAMPLE  =      F    k-point downsampling of WAVECAR
   LCHARG       =      T    write CHGCAR
   LVTOT        =      F    write LOCPOT, total local potential
   LVHAR        =      F    write LOCPOT, Hartree potential only
   LELF         =      F    write electronic localiz. function (ELF)
   LORBIT       =      0    0 simple, 1 ext, 2 COOP (PROOUT), +10 PAW based schemes


 Dipole corrections
   LMONO  =      F    monopole corrections only (constant potential shift)
   LDIPOL =      T    correct potential (dipole corrections)
   IDIPOL =      3    1-x, 2-y, 3-z, 4-all directions 
   EPSILON=  1.0000000 bulk dielectric constant

 Exchange correlation treatment:
   GGA     =    PE    GGA type
   LEXCH   =     8    internal setting for exchange type
   VOSKOWN=      0    Vosko Wilk Nusair interpolation
   LHFCALC =     F    Hartree Fock is set to
   LHFONE  =     F    Hartree Fock one center treatment
   AEXX    =    0.0000 exact exchange contribution

 Linear response parameters
   LEPSILON=     F    determine dielectric tensor
   LRPA    =     F    only Hartree local field effects (RPA)
   LNABLA  =     F    use nabla operator in PAW spheres
   LVEL    =     F    velocity operator in full k-point grid
   LINTERFAST=   F  fast interpolation
   KINTER  =     0    interpolate to denser k-point grid
   CSHIFT  =0.1000    complex shift for real part using Kramers Kronig
   OMEGAMAX=  -1.0    maximum frequency
   DEG_THRESHOLD= 0.2000000E-02 threshold for treating states as degnerate
   RTIME   =   -0.100 relaxation time in fs
  (WPLASMAI=    0.000 imaginary part of plasma frequency in eV, 0.658/RTIME)
   DFIELD  = 0.0000000 0.0000000 0.0000000 field for delta impulse in time
 
 Orbital magnetization related:
   ORBITALMAG=     F  switch on orbital magnetization
   LCHIMAG   =     F  perturbation theory with respect to B field
   DQ        =  0.001000  dq finite difference perturbation B field
   LLRAUG    =     F  two centre corrections for induced B field



--------------------------------------------------------------------------------------------------------


 Static calculation
 charge density and potential will be updated during run
 non-spin polarized calculation
 Variant of blocked Davidson
 Davidson routine will perform the subspace rotation
 perform sub-space diagonalisation
    after iterative eigenvector-optimisation
 modified Broyden-mixing scheme, WC =      100.0
 initial mixing is a Kerker type mixing with AMIX =  0.4000 and BMIX =      1.0000
 Hartree-type preconditioning will be used
 using additional bands           23
 real space projection scheme for non local part
 use partial core corrections
 calculate Harris-corrections to forces 
   (improved forces if not selfconsistent)
 use gradient corrections 
 use of overlap-Matrix (Vanderbilt PP)
 Methfessel and Paxton  Order N= 1 SIGMA  =   0.20


--------------------------------------------------------------------------------------------------------


  energy-cutoff  :      400.00
  volume of cell :      734.67
      direct lattice vectors                 reciprocal lattice vectors
     5.873400211  0.000000000  0.000000000     0.170259128  0.098299154  0.000000000
    -2.936700106  5.086513790  0.000000000     0.000000000  0.196598307  0.000000000
     0.000000000  0.000000000 24.591199875     0.000000000  0.000000000  0.040664954

  length of vectors
     5.873400211  5.873400211 24.591199875     0.196598307  0.196598307  0.040664954


 
 k-points in units of 2pi/SCALE and weight: Name # first line                       
   0.00000000  0.00000000  0.00000000       0.020
   0.02432273  0.01404274  0.00000000       0.041
   0.04864547  0.02808547  0.00000000       0.041
   0.07296820  0.04212821  0.00000000       0.041
   0.00000000  0.02808547  0.00000000       0.041
   0.02432273  0.04212821  0.00000000       0.041
   0.04864547  0.05617094  0.00000000       0.041
   0.07296820  0.07021368  0.00000000       0.041
  -0.07296820 -0.01404274  0.00000000       0.041
  -0.04864547 -0.00000000  0.00000000       0.041
  -0.02432273  0.01404274  0.00000000       0.041
   0.00000000  0.05617094  0.00000000       0.041
   0.02432273  0.07021368  0.00000000       0.041
   0.04864547  0.08425642  0.00000000       0.041
   0.07296820  0.09829915  0.00000000       0.041
  -0.07296820  0.01404274  0.00000000       0.041
  -0.04864547  0.02808547  0.00000000       0.041
  -0.02432273  0.04212821  0.00000000       0.041
   0.00000000  0.08425642  0.00000000       0.041
   0.02432273  0.09829915  0.00000000       0.041
   0.04864547  0.11234189  0.00000000       0.041
   0.07296820  0.12638463  0.00000000       0.041
  -0.07296820  0.04212821  0.00000000       0.041
  -0.04864547  0.05617094  0.00000000       0.041
  -0.02432273  0.07021368  0.00000000       0.041
 
 k-points in reciprocal lattice and weights: Name # first line                       
   0.00000000  0.00000000  0.00000000       0.020
   0.14285714  0.00000000  0.00000000       0.041
   0.28571429  0.00000000  0.00000000       0.041
   0.42857143  0.00000000  0.00000000       0.041
   0.00000000  0.14285714  0.00000000       0.041
   0.14285714  0.14285714  0.00000000       0.041
   0.28571429  0.14285714  0.00000000       0.041
   0.42857143  0.14285714  0.00000000       0.041
  -0.42857143  0.14285714  0.00000000       0.041
  -0.28571429  0.14285714  0.00000000       0.041
  -0.14285714  0.14285714  0.00000000       0.041
   0.00000000  0.28571429  0.00000000       0.041
   0.14285714  0.28571429  0.00000000       0.041
   0.28571429  0.28571429  0.00000000       0.041
   0.42857143  0.28571429  0.00000000       0.041
  -0.42857143  0.28571429  0.00000000       0.041
  -0.28571429  0.28571429  0.00000000       0.041
  -0.14285714  0.28571429  0.00000000       0.041
   0.00000000  0.42857143  0.00000000       0.041
   0.14285714  0.42857143  0.00000000       0.041
   0.28571429  0.42857143  0.00000000       0.041
   0.42857143  0.42857143  0.00000000       0.041
  -0.42857143  0.42857143  0.00000000       0.041
  -0.28571429  0.42857143  0.00000000       0.041
  -0.14285714  0.42857143  0.00000000       0.041
 
 position of ions in fractional coordinates (direct lattice) 
   0.33333001  0.66667002  0.04066000
   0.00000000  0.00000000  0.13817000
   0.66532509  0.33308527  0.23432853
   0.33061097  0.66595539  0.33502157
   0.99596538  0.99867965  0.42208886
   0.33333001  0.16666999  0.04066000
   0.00000000  0.50000000  0.13817000
   0.66364746  0.83220722  0.23487419
   0.33471025  0.16815472  0.33056682
   0.01838840  0.50956090  0.43342641
   0.83332998  0.16666999  0.04066000
   0.50000000  0.50000000  0.13817000
   0.16679466  0.83189869  0.23495173
   0.82809067  0.16809288  0.33041507
   0.48557612  0.50949065  0.43354808
   0.83332998  0.66667002  0.04066000
   0.50000000  0.00000000  0.13817000
   0.16668218  0.33537806  0.23493863
   0.82836944  0.66166725  0.33040797
   0.48553664  0.97677804  0.43355685
   0.66340555  0.33208931  0.47766870
 
 position of ions in cartesian coordinates  (Angst):
  -0.00002941  3.39102627  0.99987821
   0.00000000  0.00000000  3.39776619
   2.92954900  1.69424280  5.76241981
  -0.01390074  3.38739127  8.23858241
   2.91688068  5.07979779 10.37967154
   1.46832073  0.84776923  0.99987821
  -1.46835005  2.54325689  3.39776619
   1.45392411  4.23303352  5.77583813
   1.47206726  0.85532132  8.12903467
  -1.38842514  2.59188856 10.65847546
   4.40502067  0.84776923  0.99987821
   1.46835005  2.54325689  3.39776619
  -1.46338516  4.23146417  5.77774499
   4.37006953  0.85500676  8.12530305
   1.35576163  2.59153121 10.66146761
   2.93667053  3.39102627  0.99987821
   2.93670011  0.00000000  3.39776619
  -0.00591366  1.70590515  5.77742283
   2.92222699  3.36557958  8.12512833
  -0.01675318  4.96839497 10.66168311
   2.92119958  1.68917684 11.74644637
 


--------------------------------------------------------------------------------------------------------


 k-point  1 :   0.0000 0.0000 0.0000  plane waves:   13437
 k-point  2 :   0.1429 0.0000 0.0000  plane waves:   13391
 k-point  3 :   0.2857 0.0000 0.0000  plane waves:   13353
 k-point  4 :   0.4286 0.0000 0.0000  plane waves:   13306
 k-point  5 :   0.0000 0.1429 0.0000  plane waves:   13391
 k-point  6 :   0.1429 0.1429 0.0000  plane waves:   13331
 k-point  7 :   0.2857 0.1429 0.0000  plane waves:   13341
 k-point  8 :   0.4286 0.1429 0.0000  plane waves:   13306
 k-point  9 :  -0.4286 0.1429 0.0000  plane waves:   13341
 k-point 10 :  -0.2857 0.1429 0.0000  plane waves:   13331
 k-point 11 :  -0.1429 0.1429 0.0000  plane waves:   13391
 k-point 12 :   0.0000 0.2857 0.0000  plane waves:   13353
 k-point 13 :   0.1429 0.2857 0.0000  plane waves:   13341
 k-point 14 :   0.2857 0.2857 0.0000  plane waves:   13332
 k-point 15 :   0.4286 0.2857 0.0000  plane waves:   13332
 k-point 16 :  -0.4286 0.2857 0.0000  plane waves:   13341
 k-point 17 :  -0.2857 0.2857 0.0000  plane waves:   13353
 k-point 18 :  -0.1429 0.2857 0.0000  plane waves:   13331
 k-point 19 :   0.0000 0.4286 0.0000  plane waves:   13306
 k-point 20 :   0.1429 0.4286 0.0000  plane waves:   13306
 k-point 21 :   0.2857 0.4286 0.0000  plane waves:   13332
 k-point 22 :   0.4286 0.4286 0.0000  plane waves:   13306
 k-point 23 :  -0.4286 0.4286 0.0000  plane waves:   13306
 k-point 24 :  -0.2857 0.4286 0.0000  plane waves:   13341
 k-point 25 :  -0.1429 0.4286 0.0000  plane waves:   13341

 maximum and minimum number of plane-waves per node :      2715     2638

 maximum number of plane-waves:     13437
 maximum index in each direction: 
   IXMAX=   10   IYMAX=    9   IZMAX=   40
   IXMIN=  -10   IYMIN=  -10   IZMIN=  -40


 real space projection operators:
  total allocation   :       5867.62 KBytes
  max/ min on nodes  :       1188.48       1157.45


 parallel 3D FFT for wavefunctions:
    minimum data exchange during FFTs selected (reduces bandwidth)
 parallel 3D FFT for charge:
    minimum data exchange during FFTs selected (reduces bandwidth)


 total amount of memory used by VASP MPI-rank0    55177. kBytes
=======================================================================

   base      :      30000. kBytes
   nonlr-proj:       2210. kBytes
   fftplans  :       1579. kBytes
   grid      :       2489. kBytes
   one-center:         77. kBytes
   wavefun   :      18822. kBytes
 
     INWAV:  cpu time    0.0000: real time    0.0002
 Broyden mixing: mesh for mixing (old mesh)
   NGX = 19   NGY = 19   NGZ = 81
  (NGX  = 60   NGY  = 60   NGZ  =240)
  gives a total of  29241 points

 initial charge density was supplied:
 number of electron     226.0000172 magnetization 
 keeping initial charge density in first step


--------------------------------------------------------------------------------------------------------


 Maximum index for non-local projection operator          417
 Maximum index for augmentation-charges          466 (set IRDMAX)


--------------------------------------------------------------------------------------------------------


 First call to EWALD:  gamma=   0.196
 Maximum number of real-space cells 4x 4x 1
 Maximum number of reciprocal cells 2x 2x 7

    FEWALD:  cpu time    0.0021: real time    0.0023


--------------------------------------- Iteration      1(   1)  ---------------------------------------


    POTLOK:  cpu time    0.0338: real time    0.1551
    SETDIJ:  cpu time    0.1633: real time    0.3992
     EDDAV:  cpu time    6.6699: real time    7.0564
       DOS:  cpu time    0.0035: real time    0.0035
    --------------------------------------------
      LOOP:  cpu time    6.8705: real time    7.6146

 eigenvalue-minimisations  :  6808
 total energy-change (2. order) : 0.1400383E+04  (-0.9460368E+04)
 number of electron     226.0000172 magnetization 
 augmentation part      226.0000172 magnetization 

 DIPCOR: dipole corrections for dipol
 direction  3 min pos   186,
 dipolmoment           0.000000      0.000000      0.092974 electrons x Angstroem
 Tr[quadrupol]     -1415.885313

 energy correction for charged system         0.000000 eV
 dipol+quadrupol energy correction           -0.001065 eV
 added-field ion interaction          3.719243 eV  (added to PSCEN)


 Free energy of the ion-electron system (eV)
  ---------------------------------------------------
  alpha Z        PSCENC =       662.32996148
  Ewald energy   TEWEN  =     63062.49408285
  -Hartree energ DENC   =    -82924.53920010
  -exchange      EXHF   =         0.00000000
  -V(xc)+E(xc)   XCENC  =       325.42028345
  PAW double counting   =     20843.90102443   -20431.32445599
  entropy T*S    EENTRO =        -0.00627513
  eigenvalues    EBANDS =       908.23387416
  atomic energy  EATOM  =     18953.87357138
  Solvation  Ediel_sol  =         0.00000000
  ---------------------------------------------------
  free energy    TOTEN  =      1400.38286652 eV

  energy without entropy =     1400.38914165  energy(sigma->0) =     1400.38495823


--------------------------------------------------------------------------------------------------------




--------------------------------------- Iteration      1(   2)  ---------------------------------------


     EDDAV:  cpu time    7.3773: real time    7.4963
       DOS:  cpu time    0.0027: real time    0.0027
    --------------------------------------------
      LOOP:  cpu time    7.3799: real time    7.4990

 eigenvalue-minimisations  :  7704
 total energy-change (2. order) :-0.1392191E+04  (-0.1303888E+04)
 number of electron     226.0000172 magnetization 
 augmentation part      226.0000172 magnetization 

 DIPCOR: dipole corrections for dipol
 direction  3 min pos   186,
 dipolmoment           0.000000      0.000000      0.092974 electrons x Angstroem
 Tr[quadrupol]     -1415.885313

 energy correction for charged system         0.000000 eV
 dipol+quadrupol energy correction           -0.001065 eV
 added-field ion interaction          3.719243 eV  (added to PSCEN)


 Free energy of the ion-electron system (eV)
  ---------------------------------------------------
  alpha Z        PSCENC =       662.32996148
  Ewald energy   TEWEN  =     63062.49408285
  -Hartree energ DENC   =    -82924.53920010
  -exchange      EXHF   =         0.00000000
  -V(xc)+E(xc)   XCENC  =       325.42028345
  PAW double counting   =     20843.90102443   -20431.32445599
  entropy T*S    EENTRO =         0.02384309
  eigenvalues    EBANDS =      -483.98702108
  atomic energy  EATOM  =     18953.87357138
  Solvation  Ediel_sol  =         0.00000000
  ---------------------------------------------------
  free energy    TOTEN  =         8.19208951 eV

  energy without entropy =        8.16824642  energy(sigma->0) =        8.18414181


--------------------------------------------------------------------------------------------------------




--------------------------------------- Iteration      1(   3)  ---------------------------------------


     EDDAV:  cpu time    7.1569: real time    7.2457
       DOS:  cpu time    0.0025: real time    0.0025
    --------------------------------------------
      LOOP:  cpu time    7.1594: real time    7.2483

 eigenvalue-minimisations  :  7592
 total energy-change (2. order) :-0.7288553E+02  (-0.7001644E+02)
 number of electron     226.0000172 magnetization 
 augmentation part      226.0000172 magnetization 

 DIPCOR: dipole corrections for dipol
 direction  3 min pos   186,
 dipolmoment           0.000000      0.000000      0.092974 electrons x Angstroem
 Tr[quadrupol]     -1415.885313

 energy correction for charged system         0.000000 eV
 dipol+quadrupol energy correction           -0.001065 eV
 added-field ion interaction          3.719243 eV  (added to PSCEN)


 Free energy of the ion-electron system (eV)
  ---------------------------------------------------
  alpha Z        PSCENC =       662.32996148
  Ewald energy   TEWEN  =     63062.49408285
  -Hartree energ DENC   =    -82924.53920010
  -exchange      EXHF   =         0.00000000
  -V(xc)+E(xc)   XCENC  =       325.42028345
  PAW double counting   =     20843.90102443   -20431.32445599
  entropy T*S    EENTRO =        -0.00139387
  eigenvalues    EBANDS =      -556.84731140
  atomic energy  EATOM  =     18953.87357138
  Solvation  Ediel_sol  =         0.00000000
  ---------------------------------------------------
  free energy    TOTEN  =       -64.69343778 eV

  energy without entropy =      -64.69204391  energy(sigma->0) =      -64.69297315


--------------------------------------------------------------------------------------------------------




--------------------------------------- Iteration      1(   4)  ---------------------------------------


     EDDAV:  cpu time    7.1638: real time    7.2798
       DOS:  cpu time    0.0025: real time    0.0041
    --------------------------------------------
      LOOP:  cpu time    7.1664: real time    7.2839

 eigenvalue-minimisations  :  7624
 total energy-change (2. order) :-0.1997044E+01  (-0.1983200E+01)
 number of electron     226.0000172 magnetization 
 augmentation part      226.0000172 magnetization 

 DIPCOR: dipole corrections for dipol
 direction  3 min pos   186,
 dipolmoment           0.000000      0.000000      0.092974 electrons x Angstroem
 Tr[quadrupol]     -1415.885313

 energy correction for charged system         0.000000 eV
 dipol+quadrupol energy correction           -0.001065 eV
 added-field ion interaction          3.719243 eV  (added to PSCEN)


 Free energy of the ion-electron system (eV)
  ---------------------------------------------------
  alpha Z        PSCENC =       662.32996148
  Ewald energy   TEWEN  =     63062.49408285
  -Hartree energ DENC   =    -82924.53920010
  -exchange      EXHF   =         0.00000000
  -V(xc)+E(xc)   XCENC  =       325.42028345
  PAW double counting   =     20843.90102443   -20431.32445599
  entropy T*S    EENTRO =        -0.00396259
  eigenvalues    EBANDS =      -558.84178714
  atomic energy  EATOM  =     18953.87357138
  Solvation  Ediel_sol  =         0.00000000
  ---------------------------------------------------
  free energy    TOTEN  =       -66.69048223 eV

  energy without entropy =      -66.68651964  energy(sigma->0) =      -66.68916137


--------------------------------------------------------------------------------------------------------




--------------------------------------- Iteration      1(   5)  ---------------------------------------


     EDDAV:  cpu time    7.3361: real time    7.4249
       DOS:  cpu time    0.0025: real time    0.0025
    CHARGE:  cpu time    0.1495: real time    0.1532
    MIXING:  cpu time    0.0020: real time    0.0042
    --------------------------------------------
      LOOP:  cpu time    7.4901: real time    7.5849

 eigenvalue-minimisations  :  7872
 total energy-change (2. order) :-0.7539624E-01  (-0.7537215E-01)
 number of electron     226.0000172 magnetization 
 augmentation part       81.1075130 magnetization 

 DIPCOR: dipole corrections for dipol
 direction  3 min pos   186,
 dipolmoment           0.000000      0.000000      0.092974 electrons x Angstroem
 Tr[quadrupol]     -1415.885313

 energy correction for charged system         0.000000 eV
 dipol+quadrupol energy correction           -0.001065 eV
 added-field ion interaction          3.719243 eV  (added to PSCEN)


 Broyden mixing:
  rms(total) = 0.84230E-02    rms(broyden)= 0.84190E-02
  rms(prec ) = 0.87534E-02
  weight for this iteration     100.00

 Free energy of the ion-electron system (eV)
  ---------------------------------------------------
  alpha Z        PSCENC =       662.32996148
  Ewald energy   TEWEN  =     63062.49408285
  -Hartree energ DENC   =    -82924.53920010
  -exchange      EXHF   =         0.00000000
  -V(xc)+E(xc)   XCENC  =       325.42028345
  PAW double counting   =     20843.90102443   -20431.32445599
  entropy T*S    EENTRO =        -0.00401225
  eigenvalues    EBANDS =      -558.91713372
  atomic energy  EATOM  =     18953.87357138
  Solvation  Ediel_sol  =         0.00000000
  ---------------------------------------------------
  free energy    TOTEN  =       -66.76587847 eV

  energy without entropy =      -66.76186622  energy(sigma->0) =      -66.76454105


--------------------------------------------------------------------------------------------------------




--------------------------------------- Iteration      1(   6)  ---------------------------------------


    POTLOK:  cpu time    0.0282: real time    0.0286
    SETDIJ:  cpu time    0.0037: real time    0.0037
     EDDAV:  cpu time    7.5268: real time    7.5850
       DOS:  cpu time    0.0027: real time    0.0027
    CHARGE:  cpu time    0.1501: real time    0.1518
    MIXING:  cpu time    0.0017: real time    0.0536
    --------------------------------------------
      LOOP:  cpu time    7.7132: real time    7.8254

 eigenvalue-minimisations  :  8048
 total energy-change (2. order) : 0.1314631E-01  (-0.3120113E-02)
 number of electron     226.0000172 magnetization 
 augmentation part       81.1005239 magnetization 

 DIPCOR: dipole corrections for dipol
 direction  3 min pos   186,
 dipolmoment           0.000000      0.000000      0.090278 electrons x Angstroem
 Tr[quadrupol]     -1415.894087

 energy correction for charged system         0.000000 eV
 dipol+quadrupol energy correction           -0.001004 eV
 added-field ion interaction          3.611372 eV  (added to PSCEN)


 Broyden mixing:
  rms(total) = 0.16411E-01    rms(broyden)= 0.16406E-01
  rms(prec ) = 0.20792E-01
  weight for this iteration     100.00

 eigenvalues of (default mixing * dielectric matrix)
  average eigenvalue GAMMA=   0.3025
  0.3025

 Free energy of the ion-electron system (eV)
  ---------------------------------------------------
  alpha Z        PSCENC =       662.22215077
  Ewald energy   TEWEN  =     63062.49408285
  -Hartree energ DENC   =    -82924.85853472
  -exchange      EXHF   =         0.00000000
  -V(xc)+E(xc)   XCENC  =       325.41966216
  PAW double counting   =     20856.32249946   -20443.78081084
  entropy T*S    EENTRO =        -0.00654099
  eigenvalues    EBANDS =      -558.43881221
  atomic energy  EATOM  =     18953.87357138
  Solvation  Ediel_sol  =         0.00000000
  ---------------------------------------------------
  free energy    TOTEN  =       -66.75273215 eV

  energy without entropy =      -66.74619116  energy(sigma->0) =      -66.75055182


--------------------------------------------------------------------------------------------------------




--------------------------------------- Iteration      1(   7)  ---------------------------------------


    POTLOK:  cpu time    0.0285: real time    0.0304
    SETDIJ:  cpu time    0.0037: real time    0.0037
     EDDAV:  cpu time    7.0932: real time    7.1981
       DOS:  cpu time    0.0025: real time    0.0028
    CHARGE:  cpu time    0.1477: real time    0.1493
    MIXING:  cpu time    0.0009: real time    0.0009
    --------------------------------------------
      LOOP:  cpu time    7.2765: real time    7.3851

 eigenvalue-minimisations  :  7552
 total energy-change (2. order) : 0.9830157E-04  (-0.3958645E-03)
 number of electron     226.0000172 magnetization 
 augmentation part       81.0973282 magnetization 

 DIPCOR: dipole corrections for dipol
 direction  3 min pos   187,
 dipolmoment           0.000000      0.000000      0.096718 electrons x Angstroem
 Tr[quadrupol]     -1415.911015

 energy correction for charged system         0.000000 eV
 dipol+quadrupol energy correction           -0.001152 eV
 added-field ion interaction          4.420658 eV  (added to PSCEN)


 Broyden mixing:
  rms(total) = 0.82742E-02    rms(broyden)= 0.82707E-02
  rms(prec ) = 0.12721E-01
  weight for this iteration     100.00

 eigenvalues of (default mixing * dielectric matrix)
  average eigenvalue GAMMA=   0.3570
  0.5324  0.1815

 Free energy of the ion-electron system (eV)
  ---------------------------------------------------
  alpha Z        PSCENC =       663.03128860
  Ewald energy   TEWEN  =     63062.49408285
  -Hartree energ DENC   =    -82924.59300212
  -exchange      EXHF   =         0.00000000
  -V(xc)+E(xc)   XCENC  =       325.42204265
  PAW double counting   =     20855.84500535   -20443.29864067
  entropy T*S    EENTRO =        -0.00418828
  eigenvalues    EBANDS =      -559.52279361
  atomic energy  EATOM  =     18953.87357138
  Solvation  Ediel_sol  =         0.00000000
  ---------------------------------------------------
  free energy    TOTEN  =       -66.75263385 eV

  energy without entropy =      -66.74844557  energy(sigma->0) =      -66.75123776


--------------------------------------------------------------------------------------------------------




--------------------------------------- Iteration      1(   8)  ---------------------------------------


    POTLOK:  cpu time    0.0285: real time    0.0305
    SETDIJ:  cpu time    0.0037: real time    0.0037
     EDDAV:  cpu time    6.9865: real time    7.0923
       DOS:  cpu time    0.0025: real time    0.0025
    CHARGE:  cpu time    0.1486: real time    0.1507
    MIXING:  cpu time    0.0009: real time    0.0113
    --------------------------------------------
      LOOP:  cpu time    7.1707: real time    7.2909

 eigenvalue-minimisations  :  7496
 total energy-change (2. order) : 0.1214590E-03  (-0.1530107E-03)
 number of electron     226.0000172 magnetization 
 augmentation part       81.1001127 magnetization 

 DIPCOR: dipole corrections for dipol
 direction  3 min pos   187,
 dipolmoment           0.000000      0.000000      0.092083 electrons x Angstroem
 Tr[quadrupol]     -1415.897786

 energy correction for charged system         0.000000 eV
 dipol+quadrupol energy correction           -0.001044 eV
 added-field ion interaction          4.208802 eV  (added to PSCEN)


 Broyden mixing:
  rms(total) = 0.47915E-02    rms(broyden)= 0.47910E-02
  rms(prec ) = 0.66886E-02
  weight for this iteration     100.00

 eigenvalues of (default mixing * dielectric matrix)
  average eigenvalue GAMMA=   0.4104
  0.5452  0.5452  0.1408

 Free energy of the ion-electron system (eV)
  ---------------------------------------------------
  alpha Z        PSCENC =       662.81954071
  Ewald energy   TEWEN  =     63062.49408285
  -Hartree energ DENC   =    -82924.41828501
  -exchange      EXHF   =         0.00000000
  -V(xc)+E(xc)   XCENC  =       325.42129023
  PAW double counting   =     20854.74144107   -20442.19353425
  entropy T*S    EENTRO =        -0.00507645
  eigenvalues    EBANDS =      -559.48554292
  atomic energy  EATOM  =     18953.87357138
  Solvation  Ediel_sol  =         0.00000000
  ---------------------------------------------------
  free energy    TOTEN  =       -66.75251239 eV

  energy without entropy =      -66.74743594  energy(sigma->0) =      -66.75082024


--------------------------------------------------------------------------------------------------------




--------------------------------------- Iteration      1(   9)  ---------------------------------------


    POTLOK:  cpu time    0.0282: real time    0.0302
    SETDIJ:  cpu time    0.0035: real time    0.0037
     EDDAV:  cpu time    7.0058: real time    7.1127
       DOS:  cpu time    0.0026: real time    0.0026
    CHARGE:  cpu time    0.1511: real time    0.1566
    MIXING:  cpu time    0.0010: real time    0.0010
    --------------------------------------------
      LOOP:  cpu time    7.1921: real time    7.3068

 eigenvalue-minimisations  :  7496
 total energy-change (2. order) : 0.3287763E-04  (-0.1772204E-04)
 number of electron     226.0000172 magnetization 
 augmentation part       81.0997858 magnetization 

 DIPCOR: dipole corrections for dipol
 direction  3 min pos   187,
 dipolmoment           0.000000      0.000000      0.093189 electrons x Angstroem
 Tr[quadrupol]     -1415.904394

 energy correction for charged system         0.000000 eV
 dipol+quadrupol energy correction           -0.001069 eV
 added-field ion interaction          4.259329 eV  (added to PSCEN)


 Broyden mixing:
  rms(total) = 0.22395E-02    rms(broyden)= 0.22394E-02
  rms(prec ) = 0.25104E-02
  weight for this iteration     100.00

 eigenvalues of (default mixing * dielectric matrix)
  average eigenvalue GAMMA=   0.4527
  0.6511  0.6511  0.1428  0.3658

 Free energy of the ion-electron system (eV)
  ---------------------------------------------------
  alpha Z        PSCENC =       662.87004203
  Ewald energy   TEWEN  =     63062.49408285
  -Hartree energ DENC   =    -82924.52779808
  -exchange      EXHF   =         0.00000000
  -V(xc)+E(xc)   XCENC  =       325.42055210
  PAW double counting   =     20853.14571381   -20440.59510891
  entropy T*S    EENTRO =        -0.00493286
  eigenvalues    EBANDS =      -559.42860184
  atomic energy  EATOM  =     18953.87357138
  Solvation  Ediel_sol  =         0.00000000
  ---------------------------------------------------
  free energy    TOTEN  =       -66.75247952 eV

  energy without entropy =      -66.74754665  energy(sigma->0) =      -66.75083523


--------------------------------------------------------------------------------------------------------




--------------------------------------- Iteration      1(  10)  ---------------------------------------


    POTLOK:  cpu time    0.0293: real time    0.0323
    SETDIJ:  cpu time    0.0041: real time    0.0041
     EDDAV:  cpu time    8.3391: real time    8.4684
       DOS:  cpu time    0.0026: real time    0.0026
    CHARGE:  cpu time    0.1861: real time    0.1878
    MIXING:  cpu time    0.0009: real time    0.0009
    --------------------------------------------
      LOOP:  cpu time    8.5622: real time    8.6962

 eigenvalue-minimisations  :  8592
 total energy-change (2. order) : 0.3152054E-06  (-0.2843269E-05)
 number of electron     226.0000172 magnetization 
 augmentation part       81.0996292 magnetization 

 DIPCOR: dipole corrections for dipol
 direction  3 min pos   187,
 dipolmoment           0.000000      0.000000      0.093356 electrons x Angstroem
 Tr[quadrupol]     -1415.904429

 energy correction for charged system         0.000000 eV
 dipol+quadrupol energy correction           -0.001073 eV
 added-field ion interaction          4.266997 eV  (added to PSCEN)


 Broyden mixing:
  rms(total) = 0.18860E-02    rms(broyden)= 0.18859E-02
  rms(prec ) = 0.19561E-02
  weight for this iteration     100.00

 eigenvalues of (default mixing * dielectric matrix)
  average eigenvalue GAMMA=   0.4826
  0.7261  0.7261  0.1428  0.4089  0.4089

 Free energy of the ion-electron system (eV)
  ---------------------------------------------------
  alpha Z        PSCENC =       662.87770625
  Ewald energy   TEWEN  =     63062.49408285
  -Hartree energ DENC   =    -82924.52469336
  -exchange      EXHF   =         0.00000000
  -V(xc)+E(xc)   XCENC  =       325.42064536
  PAW double counting   =     20851.94639417   -20439.39424697
  entropy T*S    EENTRO =        -0.00485894
  eigenvalues    EBANDS =      -559.44107995
  atomic energy  EATOM  =     18953.87357138
  Solvation  Ediel_sol  =         0.00000000
  ---------------------------------------------------
  free energy    TOTEN  =       -66.75247920 eV

  energy without entropy =      -66.74762026  energy(sigma->0) =      -66.75085955


--------------------------------------------------------------------------------------------------------




--------------------------------------- Iteration      1(  11)  ---------------------------------------


    POTLOK:  cpu time    0.0283: real time    0.0309
    SETDIJ:  cpu time    0.0037: real time    0.0037
     EDDAV:  cpu time    4.8834: real time    4.9552
       DOS:  cpu time    0.0024: real time    0.0024
    --------------------------------------------
      LOOP:  cpu time    4.9177: real time    4.9922

 eigenvalue-minimisations  :  4368
 total energy-change (2. order) : 0.7552808E-07  (-0.1155481E-06)
 number of electron     226.0000172 magnetization 
 augmentation part       81.0996292 magnetization 

 DIPCOR: dipole corrections for dipol
 direction  3 min pos   187,
 dipolmoment           0.000000      0.000000      0.093287 electrons x Angstroem
 Tr[quadrupol]     -1415.904254

 energy correction for charged system         0.000000 eV
 dipol+quadrupol energy correction           -0.001072 eV
 added-field ion interaction          4.263842 eV  (added to PSCEN)


 Free energy of the ion-electron system (eV)
  ---------------------------------------------------
  alpha Z        PSCENC =       662.87455285
  Ewald energy   TEWEN  =     63062.49408285
  -Hartree energ DENC   =    -82924.52543925
  -exchange      EXHF   =         0.00000000
  -V(xc)+E(xc)   XCENC  =       325.42072186
  PAW double counting   =     20850.92381481   -20438.37056341
  entropy T*S    EENTRO =        -0.00487122
  eigenvalues    EBANDS =      -559.43834901
  atomic energy  EATOM  =     18953.87357138
  Solvation  Ediel_sol  =         0.00000000
  ---------------------------------------------------
  free energy    TOTEN  =       -66.75247912 eV

  energy without entropy =      -66.74760791  energy(sigma->0) =      -66.75085539


--------------------------------------------------------------------------------------------------------




 average (electrostatic) potential at core
  the test charge radii are     1.2098  0.7215
  (the norm of the test charge is              1.0000)
       1 -71.6186       2 -71.9134       3 -71.9878       4 -71.9703       5 -71.6615
       6 -71.5860       7 -71.8775       8 -71.8608       9 -71.8855      10 -71.7998
      11 -71.5862      12 -71.8783      13 -71.8600      14 -71.8869      15 -71.7992
      16 -71.5861      17 -71.8781      18 -71.8600      19 -71.8869      20 -71.7986
      21 -74.4239
 
 
 
 E-fermi :   1.4919     XC(G=0):  -6.7973     alpha+bet : -6.5473


 k-point     1 :       0.0000    0.0000    0.0000
  band No.  band energies     occupation 
      1     -16.8005      2.00000
      2      -7.5327      2.00000
      3      -6.6850      2.00000
      4      -5.7339      2.00000
      5      -5.2939      2.00000
      6      -5.2309      2.00000
      7      -5.1657      2.00000
      8      -5.1428      2.00000
      9      -5.1406      2.00000
     10      -5.0283      2.00000
     11      -5.0267      2.00000
     12      -4.9326      2.00000
     13      -4.7995      2.00000
     14      -4.7987      2.00000
     15      -4.7307      2.00000
     16      -4.6750      2.00000
     17      -4.6720      2.00000
     18      -4.6713      2.00000
     19      -4.6410      2.00000
     20      -4.6406      2.00000
     21      -4.6164      2.00000
     22      -4.3195      2.00000
     23      -4.3195      2.00000
     24      -4.3165      2.00000
     25      -4.0787      2.00000
     26      -4.0782      2.00000
     27      -4.0726      2.00000
     28      -3.7849      2.00000
     29      -3.7840      2.00000
     30      -3.3576      2.00000
     31      -3.3014      2.00000
     32      -3.2993      2.00000
     33      -3.2117      2.00000
     34      -2.9858      2.00000
     35      -2.9851      2.00000
     36      -2.9759      2.00000
     37      -2.9548      2.00000
     38      -2.9309      2.00000
     39      -2.9248      2.00000
     40      -2.9122      2.00000
     41      -2.8609      2.00000
     42      -2.8584      2.00000
     43      -2.8106      2.00000
     44      -2.8088      2.00000
     45      -2.7440      2.00000
     46      -2.7236      2.00000
     47      -2.7183      2.00000
     48      -2.7107      2.00000
     49      -2.7101      2.00000
     50      -2.6402      2.00000
     51      -2.4193      2.00000
     52      -2.4191      2.00000
     53      -2.3898      2.00000
     54      -2.3887      2.00000
     55      -2.2534      2.00000
     56      -2.1467      2.00000
     57      -2.1331      2.00000
     58      -2.1321      2.00000
     59      -2.0439      2.00000
     60      -2.0421      2.00000
     61      -1.9393      2.00000
     62      -1.7971      2.00000
     63      -1.7962      2.00000
     64      -1.5445      2.00000
     65      -1.5290      2.00000
     66      -1.4925      2.00000
     67      -1.4843      2.00000
     68      -1.4543      2.00000
     69      -1.4502      2.00000
     70      -1.3921      2.00000
     71      -1.3906      2.00000
     72      -1.2323      2.00000
     73      -1.2030      2.00000
     74      -1.2020      2.00000
     75      -1.0833      2.00000
     76      -1.0810      2.00000
     77      -1.0153      2.00000
     78      -0.9641      2.00000
     79      -0.8517      2.00000
     80      -0.8489      2.00000
     81      -0.8057      2.00000
     82      -0.8017      2.00000
     83      -0.5580      2.00000
     84      -0.5571      2.00000
     85      -0.5243      2.00000
     86      -0.4905      2.00000
     87      -0.4849      2.00000
     88      -0.4694      2.00000
     89      -0.4137      2.00000
     90      -0.4115      2.00000
     91      -0.3896      2.00000
     92      -0.3882      2.00000
     93      -0.3675      2.00000
     94      -0.3369      2.00000
     95      -0.3359      2.00000
     96      -0.3232      2.00000
     97      -0.2816      2.00000
     98      -0.2813      2.00000
     99      -0.2165      2.00000
    100      -0.2155      2.00000
    101      -0.2070      2.00000
    102      -0.1800      2.00000
    103      -0.1266      2.00000
    104      -0.0428      2.00000
    105      -0.0427      2.00000
    106      -0.0307      2.00000
    107       0.5659      2.00000
    108       0.5697      2.00000
    109       0.8594      2.00007
    110       1.4536      1.31736
    111       1.4594      1.27075
    112       1.5153      0.80348
    113       1.8990     -0.01422
    114       2.2400     -0.00000
    115       2.2416     -0.00000
    116       2.2864     -0.00000
    117       2.5752     -0.00000
    118       2.5842     -0.00000
    119       2.6316     -0.00000
    120       2.8702     -0.00000
    121       2.8717     -0.00000
    122       2.8740     -0.00000
    123       3.1877     -0.00000
    124       3.1943     -0.00000
    125       3.8785     -0.00000
    126       4.6989     -0.00000
    127       4.7128     -0.00000
    128       4.8882     -0.00000
    129       5.2818     -0.00000
    130       5.2879     -0.00000
    131       5.5536     -0.00000
    132       5.9681     -0.00000
    133       6.0795     -0.00000
    134       6.0882     -0.00000
    135       6.5349     -0.00000
    136       6.7344     -0.00000

 k-point     2 :       0.1429    0.0000    0.0000
  band No.  band energies     occupation 
      1     -16.7966      2.00000
      2      -7.3851      2.00000
      3      -6.5464      2.00000
      4      -5.6070      2.00000
      5      -5.2464      2.00000
      6      -5.1387      2.00000
      7      -5.0987      2.00000
      8      -5.0626      2.00000
      9      -5.0487      2.00000
     10      -4.9648      2.00000
     11      -4.9364      2.00000
     12      -4.8537      2.00000
     13      -4.7926      2.00000
     14      -4.7084      2.00000
     15      -4.6788      2.00000
     16      -4.6159      2.00000
     17      -4.5904      2.00000
     18      -4.5806      2.00000
     19      -4.5542      2.00000
     20      -4.5524      2.00000
     21      -4.5177      2.00000
     22      -4.2887      2.00000
     23      -4.2159      2.00000
     24      -4.2148      2.00000
     25      -4.0326      2.00000
     26      -4.0253      2.00000
     27      -4.0202      2.00000
     28      -3.7591      2.00000
     29      -3.7388      2.00000
     30      -3.3247      2.00000
     31      -3.3172      2.00000
     32      -3.3010      2.00000
     33      -3.2217      2.00000
     34      -3.0881      2.00000
     35      -3.0536      2.00000
     36      -3.0254      2.00000
     37      -2.9964      2.00000
     38      -2.9373      2.00000
     39      -2.9153      2.00000
     40      -2.8660      2.00000
     41      -2.8446      2.00000
     42      -2.7963      2.00000
     43      -2.7882      2.00000
     44      -2.7644      2.00000
     45      -2.7614      2.00000
     46      -2.7056      2.00000
     47      -2.7020      2.00000
     48      -2.6489      2.00000
     49      -2.6306      2.00000
     50      -2.6239      2.00000
     51      -2.5076      2.00000
     52      -2.4428      2.00000
     53      -2.4207      2.00000
     54      -2.3382      2.00000
     55      -2.3163      2.00000
     56      -2.2953      2.00000
     57      -2.2362      2.00000
     58      -2.1115      2.00000
     59      -2.0765      2.00000
     60      -2.0397      2.00000
     61      -2.0300      2.00000
     62      -1.8933      2.00000
     63      -1.8584      2.00000
     64      -1.7835      2.00000
     65      -1.6642      2.00000
     66      -1.6507      2.00000
     67      -1.5627      2.00000
     68      -1.5456      2.00000
     69      -1.4421      2.00000
     70      -1.4357      2.00000
     71      -1.3855      2.00000
     72      -1.3706      2.00000
     73      -1.2863      2.00000
     74      -1.2712      2.00000
     75      -1.1435      2.00000
     76      -1.1068      2.00000
     77      -1.0445      2.00000
     78      -1.0285      2.00000
     79      -0.9486      2.00000
     80      -0.9390      2.00000
     81      -0.8802      2.00000
     82      -0.8306      2.00000
     83      -0.7727      2.00000
     84      -0.6997      2.00000
     85      -0.6752      2.00000
     86      -0.6270      2.00000
     87      -0.6020      2.00000
     88      -0.5974      2.00000
     89      -0.5296      2.00000
     90      -0.5246      2.00000
     91      -0.5179      2.00000
     92      -0.4796      2.00000
     93      -0.4689      2.00000
     94      -0.4550      2.00000
     95      -0.4175      2.00000
     96      -0.4042      2.00000
     97      -0.3739      2.00000
     98      -0.3677      2.00000
     99      -0.3261      2.00000
    100      -0.3224      2.00000
    101      -0.3003      2.00000
    102      -0.2795      2.00000
    103      -0.2126      2.00000
    104      -0.1694      2.00000
    105      -0.1609      2.00000
    106      -0.0704      2.00000
    107       0.2354      2.00000
    108       0.5056      2.00000
    109       0.5587      2.00000
    110       0.8999      2.00023
    111       1.1693      2.04493
    112       1.4164      1.59075
    113       1.4180      1.58032
    114       1.7338     -0.07084
    115       1.9146     -0.01089
    116       2.0160     -0.00133
    117       2.3647     -0.00000
    118       2.6021     -0.00000
    119       2.8018     -0.00000
    120       3.2399     -0.00000
    121       3.5365     -0.00000
    122       3.6785     -0.00000
    123       3.8923     -0.00000
    124       4.1518     -0.00000
    125       4.5785     -0.00000
    126       4.7857     -0.00000
    127       4.8346     -0.00000
    128       5.0928     -0.00000
    129       5.4417     -0.00000
    130       5.4666     -0.00000
    131       5.7951     -0.00000
    132       6.0434     -0.00000
    133       6.2714     -0.00000
    134       6.3885     -0.00000
    135       6.5277     -0.00000
    136       6.8916     -0.00000

 k-point     3 :       0.2857    0.0000    0.0000
  band No.  band energies     occupation 
      1     -16.7882      2.00000
      2      -6.9613      2.00000
      3      -6.1635      2.00000
      4      -5.3775      2.00000
      5      -5.2231      2.00000
      6      -5.0571      2.00000
      7      -4.8496      2.00000
      8      -4.7986      2.00000
      9      -4.7963      2.00000
     10      -4.7589      2.00000
     11      -4.7117      2.00000
     12      -4.6978      2.00000
     13      -4.6305      2.00000
     14      -4.5445      2.00000
     15      -4.4905      2.00000
     16      -4.4126      2.00000
     17      -4.3912      2.00000
     18      -4.3412      2.00000
     19      -4.3150      2.00000
     20      -4.2691      2.00000
     21      -4.2203      2.00000
     22      -4.1690      2.00000
     23      -4.0152      2.00000
     24      -3.9897      2.00000
     25      -3.8834      2.00000
     26      -3.8600      2.00000
     27      -3.8385      2.00000
     28      -3.6716      2.00000
     29      -3.6116      2.00000
     30      -3.4093      2.00000
     31      -3.3770      2.00000
     32      -3.3503      2.00000
     33      -3.2690      2.00000
     34      -3.2248      2.00000
     35      -3.1855      2.00000
     36      -3.1390      2.00000
     37      -3.0780      2.00000
     38      -3.0377      2.00000
     39      -2.9518      2.00000
     40      -2.9009      2.00000
     41      -2.8769      2.00000
     42      -2.8231      2.00000
     43      -2.7792      2.00000
     44      -2.7191      2.00000
     45      -2.7100      2.00000
     46      -2.6607      2.00000
     47      -2.6250      2.00000
     48      -2.5990      2.00000
     49      -2.5867      2.00000
     50      -2.5165      2.00000
     51      -2.5092      2.00000
     52      -2.4887      2.00000
     53      -2.4577      2.00000
     54      -2.4373      2.00000
     55      -2.3859      2.00000
     56      -2.3629      2.00000
     57      -2.3479      2.00000
     58      -2.3038      2.00000
     59      -2.2169      2.00000
     60      -2.1624      2.00000
     61      -2.1205      2.00000
     62      -2.1041      2.00000
     63      -2.0410      2.00000
     64      -1.9833      2.00000
     65      -1.9767      2.00000
     66      -1.8850      2.00000
     67      -1.8793      2.00000
     68      -1.7208      2.00000
     69      -1.7042      2.00000
     70      -1.6675      2.00000
     71      -1.6024      2.00000
     72      -1.5290      2.00000
     73      -1.5228      2.00000
     74      -1.4075      2.00000
     75      -1.3939      2.00000
     76      -1.3761      2.00000
     77      -1.3674      2.00000
     78      -1.2977      2.00000
     79      -1.2776      2.00000
     80      -1.1814      2.00000
     81      -1.1610      2.00000
     82      -1.1482      2.00000
     83      -1.0989      2.00000
     84      -1.0083      2.00000
     85      -0.9856      2.00000
     86      -0.9619      2.00000
     87      -0.9468      2.00000
     88      -0.9057      2.00000
     89      -0.8827      2.00000
     90      -0.8425      2.00000
     91      -0.8062      2.00000
     92      -0.7688      2.00000
     93      -0.7607      2.00000
     94      -0.7386      2.00000
     95      -0.6992      2.00000
     96      -0.6212      2.00000
     97      -0.5892      2.00000
     98      -0.5522      2.00000
     99      -0.4999      2.00000
    100      -0.4688      2.00000
    101      -0.4310      2.00000
    102      -0.4167      2.00000
    103      -0.3830      2.00000
    104      -0.3274      2.00000
    105      -0.3037      2.00000
    106      -0.1848      2.00000
    107      -0.0742      2.00000
    108       0.0841      2.00000
    109       0.3237      2.00000
    110       0.5577      2.00000
    111       1.0743      2.01191
    112       1.3603      1.88872
    113       1.3676      1.85866
    114       1.7076     -0.06296
    115       1.8297     -0.03804
    116       1.9573     -0.00484
    117       2.2842     -0.00000
    118       2.7978     -0.00000
    119       3.0472     -0.00000
    120       3.3719     -0.00000
    121       3.8531     -0.00000
    122       4.2354     -0.00000
    123       4.5781     -0.00000
    124       4.8072     -0.00000
    125       4.8584     -0.00000
    126       5.5045     -0.00000
    127       5.5462     -0.00000
    128       5.8051     -0.00000
    129       5.8493     -0.00000
    130       6.2590     -0.00000
    131       6.4702     -0.00000
    132       6.7114     -0.00000
    133       6.7135     -0.00000
    134       7.1453      0.00000
    135       7.2149      0.00000
    136       7.5573      0.00000

 k-point     4 :       0.4286    0.0000    0.0000
  band No.  band energies     occupation 
      1     -16.7814      2.00000
      2      -6.3342      2.00000
      3      -5.7361      2.00000
      4      -5.6222      2.00000
      5      -5.2596      2.00000
      6      -4.9551      2.00000
      7      -4.7012      2.00000
      8      -4.5684      2.00000
      9      -4.4966      2.00000
     10      -4.4908      2.00000
     11      -4.4487      2.00000
     12      -4.4151      2.00000
     13      -4.3562      2.00000
     14      -4.2733      2.00000
     15      -4.2676      2.00000
     16      -4.1926      2.00000
     17      -4.1338      2.00000
     18      -4.0659      2.00000
     19      -4.0429      2.00000
     20      -3.9890      2.00000
     21      -3.9548      2.00000
     22      -3.8917      2.00000
     23      -3.8800      2.00000
     24      -3.7930      2.00000
     25      -3.7358      2.00000
     26      -3.6621      2.00000
     27      -3.6371      2.00000
     28      -3.6218      2.00000
     29      -3.5039      2.00000
     30      -3.5019      2.00000
     31      -3.3774      2.00000
     32      -3.3308      2.00000
     33      -3.3234      2.00000
     34      -3.2713      2.00000
     35      -3.2512      2.00000
     36      -3.2429      2.00000
     37      -3.2198      2.00000
     38      -3.1717      2.00000
     39      -3.1520      2.00000
     40      -3.1118      2.00000
     41      -3.0532      2.00000
     42      -2.9406      2.00000
     43      -2.8851      2.00000
     44      -2.8379      2.00000
     45      -2.8198      2.00000
     46      -2.7761      2.00000
     47      -2.7326      2.00000
     48      -2.6743      2.00000
     49      -2.6703      2.00000
     50      -2.6483      2.00000
     51      -2.5897      2.00000
     52      -2.5839      2.00000
     53      -2.5331      2.00000
     54      -2.4859      2.00000
     55      -2.4751      2.00000
     56      -2.4464      2.00000
     57      -2.3376      2.00000
     58      -2.3120      2.00000
     59      -2.2854      2.00000
     60      -2.2060      2.00000
     61      -2.1865      2.00000
     62      -2.1391      2.00000
     63      -2.1124      2.00000
     64      -2.0951      2.00000
     65      -2.0657      2.00000
     66      -2.0567      2.00000
     67      -1.9836      2.00000
     68      -1.9831      2.00000
     69      -1.9299      2.00000
     70      -1.9276      2.00000
     71      -1.9027      2.00000
     72      -1.8591      2.00000
     73      -1.7210      2.00000
     74      -1.7195      2.00000
     75      -1.6772      2.00000
     76      -1.6539      2.00000
     77      -1.6159      2.00000
     78      -1.5429      2.00000
     79      -1.5369      2.00000
     80      -1.4713      2.00000
     81      -1.4481      2.00000
     82      -1.3882      2.00000
     83      -1.3763      2.00000
     84      -1.3350      2.00000
     85      -1.3085      2.00000
     86      -1.2927      2.00000
     87      -1.2453      2.00000
     88      -1.2408      2.00000
     89      -1.1519      2.00000
     90      -1.1064      2.00000
     91      -1.1015      2.00000
     92      -1.0546      2.00000
     93      -0.9442      2.00000
     94      -0.8805      2.00000
     95      -0.8483      2.00000
     96      -0.8203      2.00000
     97      -0.7333      2.00000
     98      -0.6843      2.00000
     99      -0.5840      2.00000
    100      -0.4763      2.00000
    101      -0.4278      2.00000
    102      -0.4239      2.00000
    103      -0.3711      2.00000
    104      -0.3396      2.00000
    105      -0.3253      2.00000
    106      -0.2272      2.00000
    107      -0.1875      2.00000
    108       0.0747      2.00000
    109       0.5695      2.00000
    110       0.6291      2.00000
    111       0.9784      2.00171
    112       1.3344      1.97355
    113       1.3506      1.92424
    114       1.5661      0.41709
    115       1.8706     -0.02220
    116       2.0170     -0.00130
    117       2.4598     -0.00000
    118       2.8892     -0.00000
    119       2.9521     -0.00000
    120       3.3321     -0.00000
    121       4.1984     -0.00000
    122       4.3061     -0.00000
    123       4.5923     -0.00000
    124       5.4298     -0.00000
    125       5.5246     -0.00000
    126       5.7670     -0.00000
    127       6.2299     -0.00000
    128       6.3096     -0.00000
    129       6.6629     -0.00000
    130       6.7905     -0.00000
    131       6.8625     -0.00000
    132       7.3139      0.00000
    133       7.3513      0.00000
    134       7.5696      0.00000
    135       7.7940      0.00000
    136       8.1020      0.00000

 k-point     5 :       0.0000    0.1429    0.0000
  band No.  band energies     occupation 
      1     -16.7966      2.00000
      2      -7.3850      2.00000
      3      -6.5464      2.00000
      4      -5.6069      2.00000
      5      -5.2458      2.00000
      6      -5.1358      2.00000
      7      -5.0986      2.00000
      8      -5.0641      2.00000
      9      -5.0499      2.00000
     10      -4.9660      2.00000
     11      -4.9351      2.00000
     12      -4.8538      2.00000
     13      -4.7924      2.00000
     14      -4.7079      2.00000
     15      -4.6780      2.00000
     16      -4.6161      2.00000
     17      -4.5903      2.00000
     18      -4.5796      2.00000
     19      -4.5553      2.00000
     20      -4.5530      2.00000
     21      -4.5181      2.00000
     22      -4.2884      2.00000
     23      -4.2160      2.00000
     24      -4.2145      2.00000
     25      -4.0326      2.00000
     26      -4.0257      2.00000
     27      -4.0202      2.00000
     28      -3.7583      2.00000
     29      -3.7394      2.00000
     30      -3.3220      2.00000
     31      -3.3172      2.00000
     32      -3.3020      2.00000
     33      -3.2215      2.00000
     34      -3.0929      2.00000
     35      -3.0530      2.00000
     36      -3.0238      2.00000
     37      -2.9980      2.00000
     38      -2.9376      2.00000
     39      -2.9178      2.00000
     40      -2.8631      2.00000
     41      -2.8480      2.00000
     42      -2.7979      2.00000
     43      -2.7871      2.00000
     44      -2.7632      2.00000
     45      -2.7592      2.00000
     46      -2.7068      2.00000
     47      -2.7002      2.00000
     48      -2.6488      2.00000
     49      -2.6303      2.00000
     50      -2.6245      2.00000
     51      -2.5070      2.00000
     52      -2.4429      2.00000
     53      -2.4230      2.00000
     54      -2.3381      2.00000
     55      -2.3165      2.00000
     56      -2.2957      2.00000
     57      -2.2368      2.00000
     58      -2.1116      2.00000
     59      -2.0764      2.00000
     60      -2.0394      2.00000
     61      -2.0290      2.00000
     62      -1.8924      2.00000
     63      -1.8588      2.00000
     64      -1.7824      2.00000
     65      -1.6689      2.00000
     66      -1.6462      2.00000
     67      -1.5620      2.00000
     68      -1.5486      2.00000
     69      -1.4412      2.00000
     70      -1.4358      2.00000
     71      -1.3825      2.00000
     72      -1.3730      2.00000
     73      -1.2847      2.00000
     74      -1.2726      2.00000
     75      -1.1427      2.00000
     76      -1.1066      2.00000
     77      -1.0446      2.00000
     78      -1.0289      2.00000
     79      -0.9502      2.00000
     80      -0.9363      2.00000
     81      -0.8798      2.00000
     82      -0.8332      2.00000
     83      -0.7727      2.00000
     84      -0.6984      2.00000
     85      -0.6751      2.00000
     86      -0.6262      2.00000
     87      -0.6023      2.00000
     88      -0.5970      2.00000
     89      -0.5302      2.00000
     90      -0.5265      2.00000
     91      -0.5191      2.00000
     92      -0.4815      2.00000
     93      -0.4692      2.00000
     94      -0.4561      2.00000
     95      -0.4180      2.00000
     96      -0.4065      2.00000
     97      -0.3765      2.00000
     98      -0.3647      2.00000
     99      -0.3237      2.00000
    100      -0.3218      2.00000
    101      -0.3004      2.00000
    102      -0.2794      2.00000
    103      -0.2113      2.00000
    104      -0.1684      2.00000
    105      -0.1596      2.00000
    106      -0.0692      2.00000
    107       0.2351      2.00000
    108       0.5055      2.00000
    109       0.5594      2.00000
    110       0.8967      2.00021
    111       1.1691      2.04486
    112       1.4139      1.60757
    113       1.4175      1.58367
    114       1.7338     -0.07085
    115       1.9163     -0.01057
    116       2.0179     -0.00127
    117       2.3650     -0.00000
    118       2.6054     -0.00000
    119       2.8030     -0.00000
    120       3.2422     -0.00000
    121       3.5375     -0.00000
    122       3.6805     -0.00000
    123       3.8963     -0.00000
    124       4.1504     -0.00000
    125       4.5737     -0.00000
    126       4.7776     -0.00000
    127       4.8388     -0.00000
    128       5.0930     -0.00000
    129       5.4378     -0.00000
    130       5.4701     -0.00000
    131       5.7930     -0.00000
    132       6.0431     -0.00000
    133       6.2664     -0.00000
    134       6.3919     -0.00000
    135       6.5292     -0.00000
    136       6.8913     -0.00000

 k-point     6 :       0.1429    0.1429    0.0000
  band No.  band energies     occupation 
      1     -16.7904      2.00000
      2      -7.0985      2.00000
      3      -6.2839      2.00000
      4      -5.4038      2.00000
      5      -5.1861      2.00000
      6      -5.0622      2.00000
      7      -5.0098      2.00000
      8      -4.8614      2.00000
      9      -4.8370      2.00000
     10      -4.8035      2.00000
     11      -4.7860      2.00000
     12      -4.7341      2.00000
     13      -4.6880      2.00000
     14      -4.6378      2.00000
     15      -4.5583      2.00000
     16      -4.5073      2.00000
     17      -4.4646      2.00000
     18      -4.4219      2.00000
     19      -4.4142      2.00000
     20      -4.3446      2.00000
     21      -4.2766      2.00000
     22      -4.1707      2.00000
     23      -4.1342      2.00000
     24      -3.9862      2.00000
     25      -3.9479      2.00000
     26      -3.9171      2.00000
     27      -3.9135      2.00000
     28      -3.7035      2.00000
     29      -3.6557      2.00000
     30      -3.3643      2.00000
     31      -3.3340      2.00000
     32      -3.2892      2.00000
     33      -3.2691      2.00000
     34      -3.2401      2.00000
     35      -3.2045      2.00000
     36      -3.1029      2.00000
     37      -3.0532      2.00000
     38      -2.9863      2.00000
     39      -2.9095      2.00000
     40      -2.8377      2.00000
     41      -2.8209      2.00000
     42      -2.7979      2.00000
     43      -2.7885      2.00000
     44      -2.7386      2.00000
     45      -2.7233      2.00000
     46      -2.6705      2.00000
     47      -2.6445      2.00000
     48      -2.6199      2.00000
     49      -2.6024      2.00000
     50      -2.5624      2.00000
     51      -2.5123      2.00000
     52      -2.4942      2.00000
     53      -2.4810      2.00000
     54      -2.4180      2.00000
     55      -2.3924      2.00000
     56      -2.3011      2.00000
     57      -2.2975      2.00000
     58      -2.2291      2.00000
     59      -2.2050      2.00000
     60      -2.1724      2.00000
     61      -2.1353      2.00000
     62      -1.9834      2.00000
     63      -1.9758      2.00000
     64      -1.9059      2.00000
     65      -1.8876      2.00000
     66      -1.7980      2.00000
     67      -1.7367      2.00000
     68      -1.7031      2.00000
     69      -1.6722      2.00000
     70      -1.6297      2.00000
     71      -1.5006      2.00000
     72      -1.4874      2.00000
     73      -1.4582      2.00000
     74      -1.3535      2.00000
     75      -1.3295      2.00000
     76      -1.2625      2.00000
     77      -1.2344      2.00000
     78      -1.1879      2.00000
     79      -1.1695      2.00000
     80      -1.1267      2.00000
     81      -1.1202      2.00000
     82      -1.0652      2.00000
     83      -1.0495      2.00000
     84      -0.9690      2.00000
     85      -0.9110      2.00000
     86      -0.8476      2.00000
     87      -0.8378      2.00000
     88      -0.7959      2.00000
     89      -0.7831      2.00000
     90      -0.7731      2.00000
     91      -0.7290      2.00000
     92      -0.6802      2.00000
     93      -0.6409      2.00000
     94      -0.6052      2.00000
     95      -0.5674      2.00000
     96      -0.5341      2.00000
     97      -0.5141      2.00000
     98      -0.4939      2.00000
     99      -0.4801      2.00000
    100      -0.4522      2.00000
    101      -0.3910      2.00000
    102      -0.3132      2.00000
    103      -0.3081      2.00000
    104      -0.2520      2.00000
    105      -0.1095      2.00000
    106       0.0005      2.00000
    107       0.0321      2.00000
    108       0.2567      2.00000
    109       0.2954      2.00000
    110       0.4035      2.00000
    111       0.5912      2.00000
    112       0.7349      2.00000
    113       1.3937      1.72981
    114       1.6915     -0.04982
    115       1.8882     -0.01695
    116       2.6046     -0.00000
    117       2.7541     -0.00000
    118       2.8724     -0.00000
    119       3.0421     -0.00000
    120       3.1850     -0.00000
    121       3.4924     -0.00000
    122       3.7736     -0.00000
    123       4.2295     -0.00000
    124       4.6213     -0.00000
    125       4.8861     -0.00000
    126       5.2061     -0.00000
    127       5.6649     -0.00000
    128       5.6741     -0.00000
    129       5.8612     -0.00000
    130       6.1922     -0.00000
    131       6.1969     -0.00000
    132       6.3194     -0.00000
    133       6.5886     -0.00000
    134       7.1014      0.00000
    135       7.1772      0.00000
    136       7.3969      0.00000

 k-point     7 :       0.2857    0.1429    0.0000
  band No.  band energies     occupation 
      1     -16.7830      2.00000
      2      -6.5653      2.00000
      3      -5.8372      2.00000
      4      -5.3798      2.00000
      5      -5.1646      2.00000
      6      -4.8840      2.00000
      7      -4.8446      2.00000
      8      -4.7311      2.00000
      9      -4.5799      2.00000
     10      -4.5551      2.00000
     11      -4.5066      2.00000
     12      -4.4656      2.00000
     13      -4.4272      2.00000
     14      -4.4197      2.00000
     15      -4.3645      2.00000
     16      -4.2728      2.00000
     17      -4.2223      2.00000
     18      -4.1579      2.00000
     19      -4.1178      2.00000
     20      -4.0313      2.00000
     21      -3.9980      2.00000
     22      -3.9456      2.00000
     23      -3.9134      2.00000
     24      -3.8498      2.00000
     25      -3.7694      2.00000
     26      -3.7366      2.00000
     27      -3.6833      2.00000
     28      -3.6229      2.00000
     29      -3.5128      2.00000
     30      -3.4964      2.00000
     31      -3.4027      2.00000
     32      -3.3722      2.00000
     33      -3.3570      2.00000
     34      -3.3254      2.00000
     35      -3.2722      2.00000
     36      -3.2153      2.00000
     37      -3.1522      2.00000
     38      -3.0873      2.00000
     39      -3.0637      2.00000
     40      -3.0213      2.00000
     41      -2.9736      2.00000
     42      -2.9378      2.00000
     43      -2.8835      2.00000
     44      -2.8303      2.00000
     45      -2.8050      2.00000
     46      -2.7452      2.00000
     47      -2.6971      2.00000
     48      -2.6799      2.00000
     49      -2.6692      2.00000
     50      -2.5992      2.00000
     51      -2.5635      2.00000
     52      -2.5339      2.00000
     53      -2.5104      2.00000
     54      -2.4890      2.00000
     55      -2.4726      2.00000
     56      -2.4199      2.00000
     57      -2.3782      2.00000
     58      -2.3302      2.00000
     59      -2.2799      2.00000
     60      -2.2505      2.00000
     61      -2.2148      2.00000
     62      -2.1551      2.00000
     63      -2.1077      2.00000
     64      -2.0595      2.00000
     65      -2.0239      2.00000
     66      -1.9632      2.00000
     67      -1.9391      2.00000
     68      -1.9015      2.00000
     69      -1.8606      2.00000
     70      -1.8176      2.00000
     71      -1.7904      2.00000
     72      -1.7274      2.00000
     73      -1.7199      2.00000
     74      -1.6681      2.00000
     75      -1.6497      2.00000
     76      -1.6328      2.00000
     77      -1.5727      2.00000
     78      -1.4921      2.00000
     79      -1.4380      2.00000
     80      -1.3792      2.00000
     81      -1.3579      2.00000
     82      -1.3394      2.00000
     83      -1.3095      2.00000
     84      -1.2561      2.00000
     85      -1.2057      2.00000
     86      -1.1562      2.00000
     87      -1.1267      2.00000
     88      -1.0861      2.00000
     89      -1.0235      2.00000
     90      -0.9203      2.00000
     91      -0.8842      2.00000
     92      -0.8652      2.00000
     93      -0.8220      2.00000
     94      -0.7638      2.00000
     95      -0.7414      2.00000
     96      -0.6378      2.00000
     97      -0.6083      2.00000
     98      -0.5779      2.00000
     99      -0.5402      2.00000
    100      -0.5140      2.00000
    101      -0.4779      2.00000
    102      -0.4610      2.00000
    103      -0.4372      2.00000
    104      -0.4006      2.00000
    105      -0.3671      2.00000
    106      -0.2892      2.00000
    107      -0.1049      2.00000
    108       0.1167      2.00000
    109       0.2377      2.00000
    110       0.3323      2.00000
    111       0.5345      2.00000
    112       0.7335      2.00000
    113       1.1552      2.03856
    114       1.6617     -0.00314
    115       2.1445     -0.00004
    116       2.2973     -0.00000
    117       2.6032     -0.00000
    118       3.0827     -0.00000
    119       3.2852     -0.00000
    120       3.7369     -0.00000
    121       4.0059     -0.00000
    122       4.1652     -0.00000
    123       4.4615     -0.00000
    124       4.6264     -0.00000
    125       5.0104     -0.00000
    126       5.7071     -0.00000
    127       6.0286     -0.00000
    128       6.3037     -0.00000
    129       6.5372     -0.00000
    130       6.7916     -0.00000
    131       6.9926      0.00000
    132       7.1383      0.00000
    133       7.3673      0.00000
    134       7.5289      0.00000
    135       7.8684      0.00000
    136       7.9202      0.00000

 k-point     8 :       0.4286    0.1429    0.0000
  band No.  band energies     occupation 
      1     -16.7796      2.00000
      2      -5.9230      2.00000
      3      -5.8832      2.00000
      4      -5.4831      2.00000
      5      -5.2119      2.00000
      6      -4.9349      2.00000
      7      -4.6783      2.00000
      8      -4.5542      2.00000
      9      -4.4964      2.00000
     10      -4.4243      2.00000
     11      -4.3456      2.00000
     12      -4.2966      2.00000
     13      -4.2482      2.00000
     14      -4.2220      2.00000
     15      -4.1156      2.00000
     16      -4.0846      2.00000
     17      -4.0285      2.00000
     18      -4.0034      2.00000
     19      -3.9526      2.00000
     20      -3.9382      2.00000
     21      -3.8435      2.00000
     22      -3.8342      2.00000
     23      -3.7529      2.00000
     24      -3.7118      2.00000
     25      -3.6904      2.00000
     26      -3.6687      2.00000
     27      -3.5775      2.00000
     28      -3.5626      2.00000
     29      -3.5134      2.00000
     30      -3.5013      2.00000
     31      -3.4868      2.00000
     32      -3.4248      2.00000
     33      -3.4041      2.00000
     34      -3.3517      2.00000
     35      -3.3016      2.00000
     36      -3.2987      2.00000
     37      -3.2583      2.00000
     38      -3.2144      2.00000
     39      -3.1793      2.00000
     40      -3.0771      2.00000
     41      -3.0612      2.00000
     42      -3.0316      2.00000
     43      -3.0164      2.00000
     44      -2.9437      2.00000
     45      -2.9132      2.00000
     46      -2.8848      2.00000
     47      -2.8235      2.00000
     48      -2.7592      2.00000
     49      -2.7507      2.00000
     50      -2.6939      2.00000
     51      -2.6598      2.00000
     52      -2.6442      2.00000
     53      -2.5753      2.00000
     54      -2.5600      2.00000
     55      -2.5410      2.00000
     56      -2.5129      2.00000
     57      -2.4950      2.00000
     58      -2.4633      2.00000
     59      -2.3136      2.00000
     60      -2.3053      2.00000
     61      -2.2636      2.00000
     62      -2.2399      2.00000
     63      -2.1875      2.00000
     64      -2.1328      2.00000
     65      -2.1158      2.00000
     66      -2.0956      2.00000
     67      -1.9829      2.00000
     68      -1.9204      2.00000
     69      -1.8865      2.00000
     70      -1.8736      2.00000
     71      -1.8463      2.00000
     72      -1.7924      2.00000
     73      -1.7635      2.00000
     74      -1.7080      2.00000
     75      -1.7015      2.00000
     76      -1.6670      2.00000
     77      -1.6104      2.00000
     78      -1.5778      2.00000
     79      -1.5588      2.00000
     80      -1.5282      2.00000
     81      -1.4702      2.00000
     82      -1.4185      2.00000
     83      -1.3702      2.00000
     84      -1.3550      2.00000
     85      -1.2603      2.00000
     86      -1.2385      2.00000
     87      -1.2181      2.00000
     88      -1.1961      2.00000
     89      -1.1293      2.00000
     90      -1.0611      2.00000
     91      -1.0381      2.00000
     92      -0.9868      2.00000
     93      -0.9679      2.00000
     94      -0.8971      2.00000
     95      -0.8702      2.00000
     96      -0.8046      2.00000
     97      -0.7896      2.00000
     98      -0.7423      2.00000
     99      -0.5719      2.00000
    100      -0.5181      2.00000
    101      -0.4843      2.00000
    102      -0.4569      2.00000
    103      -0.4548      2.00000
    104      -0.4089      2.00000
    105      -0.3228      2.00000
    106      -0.2929      2.00000
    107      -0.2531      2.00000
    108       0.0520      2.00000
    109       0.2643      2.00000
    110       0.3573      2.00000
    111       0.6677      2.00000
    112       0.8185      2.00002
    113       1.1276      2.02724
    114       1.5303      0.68117
    115       1.9738     -0.00343
    116       2.5108     -0.00000
    117       2.7434     -0.00000
    118       2.9261     -0.00000
    119       3.1777     -0.00000
    120       3.4497     -0.00000
    121       4.3501     -0.00000
    122       4.5116     -0.00000
    123       5.1108     -0.00000
    124       5.1463     -0.00000
    125       5.2247     -0.00000
    126       5.4451     -0.00000
    127       6.0780     -0.00000
    128       6.2013     -0.00000
    129       6.9173     -0.00000
    130       7.1479      0.00000
    131       7.2059      0.00000
    132       7.3836      0.00000
    133       7.5134      0.00000
    134       7.9386      0.00000
    135       7.9449      0.00000
    136       8.1727      0.00000

 k-point     9 :      -0.4286    0.1429    0.0000
  band No.  band energies     occupation 
      1     -16.7830      2.00000
      2      -6.5652      2.00000
      3      -5.8374      2.00000
      4      -5.3797      2.00000
      5      -5.1646      2.00000
      6      -4.8834      2.00000
      7      -4.8437      2.00000
      8      -4.7309      2.00000
      9      -4.5810      2.00000
     10      -4.5554      2.00000
     11      -4.5064      2.00000
     12      -4.4653      2.00000
     13      -4.4272      2.00000
     14      -4.4200      2.00000
     15      -4.3642      2.00000
     16      -4.2727      2.00000
     17      -4.2219      2.00000
     18      -4.1577      2.00000
     19      -4.1177      2.00000
     20      -4.0316      2.00000
     21      -3.9979      2.00000
     22      -3.9461      2.00000
     23      -3.9131      2.00000
     24      -3.8502      2.00000
     25      -3.7695      2.00000
     26      -3.7365      2.00000
     27      -3.6836      2.00000
     28      -3.6232      2.00000
     29      -3.5128      2.00000
     30      -3.4966      2.00000
     31      -3.4024      2.00000
     32      -3.3727      2.00000
     33      -3.3571      2.00000
     34      -3.3254      2.00000
     35      -3.2719      2.00000
     36      -3.2151      2.00000
     37      -3.1520      2.00000
     38      -3.0867      2.00000
     39      -3.0635      2.00000
     40      -3.0214      2.00000
     41      -2.9743      2.00000
     42      -2.9375      2.00000
     43      -2.8839      2.00000
     44      -2.8308      2.00000
     45      -2.8049      2.00000
     46      -2.7441      2.00000
     47      -2.7002      2.00000
     48      -2.6803      2.00000
     49      -2.6685      2.00000
     50      -2.5988      2.00000
     51      -2.5638      2.00000
     52      -2.5346      2.00000
     53      -2.5107      2.00000
     54      -2.4876      2.00000
     55      -2.4723      2.00000
     56      -2.4197      2.00000
     57      -2.3786      2.00000
     58      -2.3301      2.00000
     59      -2.2804      2.00000
     60      -2.2508      2.00000
     61      -2.2150      2.00000
     62      -2.1559      2.00000
     63      -2.1084      2.00000
     64      -2.0582      2.00000
     65      -2.0241      2.00000
     66      -1.9633      2.00000
     67      -1.9389      2.00000
     68      -1.9008      2.00000
     69      -1.8602      2.00000
     70      -1.8177      2.00000
     71      -1.7903      2.00000
     72      -1.7278      2.00000
     73      -1.7203      2.00000
     74      -1.6676      2.00000
     75      -1.6496      2.00000
     76      -1.6322      2.00000
     77      -1.5728      2.00000
     78      -1.4918      2.00000
     79      -1.4374      2.00000
     80      -1.3789      2.00000
     81      -1.3580      2.00000
     82      -1.3392      2.00000
     83      -1.3094      2.00000
     84      -1.2556      2.00000
     85      -1.2055      2.00000
     86      -1.1567      2.00000
     87      -1.1269      2.00000
     88      -1.0856      2.00000
     89      -1.0241      2.00000
     90      -0.9204      2.00000
     91      -0.8846      2.00000
     92      -0.8649      2.00000
     93      -0.8219      2.00000
     94      -0.7637      2.00000
     95      -0.7414      2.00000
     96      -0.6380      2.00000
     97      -0.6091      2.00000
     98      -0.5778      2.00000
     99      -0.5408      2.00000
    100      -0.5144      2.00000
    101      -0.4774      2.00000
    102      -0.4608      2.00000
    103      -0.4367      2.00000
    104      -0.4003      2.00000
    105      -0.3671      2.00000
    106      -0.2893      2.00000
    107      -0.1050      2.00000
    108       0.1169      2.00000
    109       0.2378      2.00000
    110       0.3322      2.00000
    111       0.5353      2.00000
    112       0.7334      2.00000
    113       1.1551      2.03853
    114       1.6615     -0.00281
    115       2.1443     -0.00004
    116       2.2976     -0.00000
    117       2.6035     -0.00000
    118       3.0835     -0.00000
    119       3.2852     -0.00000
    120       3.7368     -0.00000
    121       4.0061     -0.00000
    122       4.1650     -0.00000
    123       4.4617     -0.00000
    124       4.6270     -0.00000
    125       5.0101     -0.00000
    126       5.7089     -0.00000
    127       6.0261     -0.00000
    128       6.3037     -0.00000
    129       6.5370     -0.00000
    130       6.7912     -0.00000
    131       6.9923      0.00000
    132       7.1378      0.00000
    133       7.3675      0.00000
    134       7.5290      0.00000
    135       7.8685      0.00000
    136       7.9202      0.00000

 k-point    10 :      -0.2857    0.1429    0.0000
  band No.  band energies     occupation 
      1     -16.7904      2.00000
      2      -7.0984      2.00000
      3      -6.2839      2.00000
      4      -5.4039      2.00000
      5      -5.1857      2.00000
      6      -5.0615      2.00000
      7      -5.0093      2.00000
      8      -4.8612      2.00000
      9      -4.8370      2.00000
     10      -4.8038      2.00000
     11      -4.7869      2.00000
     12      -4.7344      2.00000
     13      -4.6880      2.00000
     14      -4.6376      2.00000
     15      -4.5580      2.00000
     16      -4.5072      2.00000
     17      -4.4644      2.00000
     18      -4.4220      2.00000
     19      -4.4142      2.00000
     20      -4.3449      2.00000
     21      -4.2766      2.00000
     22      -4.1704      2.00000
     23      -4.1339      2.00000
     24      -3.9863      2.00000
     25      -3.9481      2.00000
     26      -3.9174      2.00000
     27      -3.9137      2.00000
     28      -3.7036      2.00000
     29      -3.6558      2.00000
     30      -3.3641      2.00000
     31      -3.3337      2.00000
     32      -3.2893      2.00000
     33      -3.2690      2.00000
     34      -3.2407      2.00000
     35      -3.2051      2.00000
     36      -3.1022      2.00000
     37      -3.0531      2.00000
     38      -2.9843      2.00000
     39      -2.9106      2.00000
     40      -2.8389      2.00000
     41      -2.8225      2.00000
     42      -2.7991      2.00000
     43      -2.7892      2.00000
     44      -2.7389      2.00000
     45      -2.7235      2.00000
     46      -2.6699      2.00000
     47      -2.6439      2.00000
     48      -2.6191      2.00000
     49      -2.6032      2.00000
     50      -2.5622      2.00000
     51      -2.5119      2.00000
     52      -2.4934      2.00000
     53      -2.4807      2.00000
     54      -2.4182      2.00000
     55      -2.3923      2.00000
     56      -2.3011      2.00000
     57      -2.2980      2.00000
     58      -2.2288      2.00000
     59      -2.2052      2.00000
     60      -2.1723      2.00000
     61      -2.1350      2.00000
     62      -1.9839      2.00000
     63      -1.9756      2.00000
     64      -1.9063      2.00000
     65      -1.8872      2.00000
     66      -1.7985      2.00000
     67      -1.7377      2.00000
     68      -1.7034      2.00000
     69      -1.6712      2.00000
     70      -1.6288      2.00000
     71      -1.5003      2.00000
     72      -1.4874      2.00000
     73      -1.4583      2.00000
     74      -1.3536      2.00000
     75      -1.3281      2.00000
     76      -1.2637      2.00000
     77      -1.2351      2.00000
     78      -1.1881      2.00000
     79      -1.1698      2.00000
     80      -1.1258      2.00000
     81      -1.1203      2.00000
     82      -1.0653      2.00000
     83      -1.0488      2.00000
     84      -0.9686      2.00000
     85      -0.9106      2.00000
     86      -0.8478      2.00000
     87      -0.8381      2.00000
     88      -0.7959      2.00000
     89      -0.7832      2.00000
     90      -0.7733      2.00000
     91      -0.7289      2.00000
     92      -0.6802      2.00000
     93      -0.6407      2.00000
     94      -0.6053      2.00000
     95      -0.5675      2.00000
     96      -0.5343      2.00000
     97      -0.5150      2.00000
     98      -0.4952      2.00000
     99      -0.4804      2.00000
    100      -0.4529      2.00000
    101      -0.3908      2.00000
    102      -0.3127      2.00000
    103      -0.3072      2.00000
    104      -0.2514      2.00000
    105      -0.1086      2.00000
    106       0.0013      2.00000
    107       0.0317      2.00000
    108       0.2566      2.00000
    109       0.2955      2.00000
    110       0.4040      2.00000
    111       0.5911      2.00000
    112       0.7347      2.00000
    113       1.3937      1.72995
    114       1.6916     -0.05000
    115       1.8883     -0.01694
    116       2.6032     -0.00000
    117       2.7548     -0.00000
    118       2.8734     -0.00000
    119       3.0424     -0.00000
    120       3.1864     -0.00000
    121       3.4927     -0.00000
    122       3.7754     -0.00000
    123       4.2295     -0.00000
    124       4.6221     -0.00000
    125       4.8835     -0.00000
    126       5.2051     -0.00000
    127       5.6646     -0.00000
    128       5.6740     -0.00000
    129       5.8590     -0.00000
    130       6.1923     -0.00000
    131       6.1968     -0.00000
    132       6.3194     -0.00000
    133       6.5887     -0.00000
    134       7.1014      0.00000
    135       7.1777      0.00000
    136       7.3968      0.00000

 k-point    11 :      -0.1429    0.1429    0.0000
  band No.  band energies     occupation 
      1     -16.7966      2.00000
      2      -7.3850      2.00000
      3      -6.5464      2.00000
      4      -5.6069      2.00000
      5      -5.2457      2.00000
      6      -5.1347      2.00000
      7      -5.0985      2.00000
      8      -5.0645      2.00000
      9      -5.0504      2.00000
     10      -4.9660      2.00000
     11      -4.9353      2.00000
     12      -4.8538      2.00000
     13      -4.7926      2.00000
     14      -4.7076      2.00000
     15      -4.6779      2.00000
     16      -4.6164      2.00000
     17      -4.5901      2.00000
     18      -4.5795      2.00000
     19      -4.5552      2.00000
     20      -4.5532      2.00000
     21      -4.5180      2.00000
     22      -4.2883      2.00000
     23      -4.2159      2.00000
     24      -4.2145      2.00000
     25      -4.0327      2.00000
     26      -4.0257      2.00000
     27      -4.0202      2.00000
     28      -3.7586      2.00000
     29      -3.7393      2.00000
     30      -3.3214      2.00000
     31      -3.3170      2.00000
     32      -3.3021      2.00000
     33      -3.2213      2.00000
     34      -3.0945      2.00000
     35      -3.0535      2.00000
     36      -3.0229      2.00000
     37      -2.9978      2.00000
     38      -2.9378      2.00000
     39      -2.9185      2.00000
     40      -2.8620      2.00000
     41      -2.8492      2.00000
     42      -2.7974      2.00000
     43      -2.7874      2.00000
     44      -2.7632      2.00000
     45      -2.7586      2.00000
     46      -2.7065      2.00000
     47      -2.7003      2.00000
     48      -2.6492      2.00000
     49      -2.6302      2.00000
     50      -2.6245      2.00000
     51      -2.5070      2.00000
     52      -2.4430      2.00000
     53      -2.4229      2.00000
     54      -2.3380      2.00000
     55      -2.3169      2.00000
     56      -2.2955      2.00000
     57      -2.2367      2.00000
     58      -2.1117      2.00000
     59      -2.0761      2.00000
     60      -2.0400      2.00000
     61      -2.0288      2.00000
     62      -1.8923      2.00000
     63      -1.8580      2.00000
     64      -1.7823      2.00000
     65      -1.6702      2.00000
     66      -1.6450      2.00000
     67      -1.5616      2.00000
     68      -1.5499      2.00000
     69      -1.4407      2.00000
     70      -1.4356      2.00000
     71      -1.3822      2.00000
     72      -1.3731      2.00000
     73      -1.2845      2.00000
     74      -1.2729      2.00000
     75      -1.1428      2.00000
     76      -1.1072      2.00000
     77      -1.0440      2.00000
     78      -1.0295      2.00000
     79      -0.9502      2.00000
     80      -0.9362      2.00000
     81      -0.8799      2.00000
     82      -0.8332      2.00000
     83      -0.7730      2.00000
     84      -0.6981      2.00000
     85      -0.6751      2.00000
     86      -0.6259      2.00000
     87      -0.6022      2.00000
     88      -0.5964      2.00000
     89      -0.5300      2.00000
     90      -0.5270      2.00000
     91      -0.5200      2.00000
     92      -0.4821      2.00000
     93      -0.4692      2.00000
     94      -0.4563      2.00000
     95      -0.4183      2.00000
     96      -0.4069      2.00000
     97      -0.3770      2.00000
     98      -0.3641      2.00000
     99      -0.3230      2.00000
    100      -0.3217      2.00000
    101      -0.3004      2.00000
    102      -0.2792      2.00000
    103      -0.2107      2.00000
    104      -0.1681      2.00000
    105      -0.1591      2.00000
    106      -0.0690      2.00000
    107       0.2346      2.00000
    108       0.5064      2.00000
    109       0.5598      2.00000
    110       0.8955      2.00021
    111       1.1692      2.04488
    112       1.4137      1.60898
    113       1.4163      1.59203
    114       1.7341     -0.07086
    115       1.9171     -0.01041
    116       2.0183     -0.00126
    117       2.3651     -0.00000
    118       2.6059     -0.00000
    119       2.8039     -0.00000
    120       3.2429     -0.00000
    121       3.5376     -0.00000
    122       3.6814     -0.00000
    123       3.8965     -0.00000
    124       4.1493     -0.00000
    125       4.5732     -0.00000
    126       4.7756     -0.00000
    127       4.8387     -0.00000
    128       5.0936     -0.00000
    129       5.4379     -0.00000
    130       5.4700     -0.00000
    131       5.7922     -0.00000
    132       6.0431     -0.00000
    133       6.2660     -0.00000
    134       6.3923     -0.00000
    135       6.5292     -0.00000
    136       6.8913     -0.00000

 k-point    12 :       0.0000    0.2857    0.0000
  band No.  band energies     occupation 
      1     -16.7882      2.00000
      2      -6.9609      2.00000
      3      -6.1634      2.00000
      4      -5.3756      2.00000
      5      -5.2213      2.00000
      6      -5.0566      2.00000
      7      -4.8519      2.00000
      8      -4.8004      2.00000
      9      -4.7962      2.00000
     10      -4.7577      2.00000
     11      -4.7108      2.00000
     12      -4.6959      2.00000
     13      -4.6285      2.00000
     14      -4.5431      2.00000
     15      -4.4899      2.00000
     16      -4.4133      2.00000
     17      -4.3922      2.00000
     18      -4.3408      2.00000
     19      -4.3154      2.00000
     20      -4.2695      2.00000
     21      -4.2209      2.00000
     22      -4.1678      2.00000
     23      -4.0138      2.00000
     24      -3.9903      2.00000
     25      -3.8838      2.00000
     26      -3.8598      2.00000
     27      -3.8393      2.00000
     28      -3.6710      2.00000
     29      -3.6109      2.00000
     30      -3.4069      2.00000
     31      -3.3782      2.00000
     32      -3.3542      2.00000
     33      -3.2702      2.00000
     34      -3.2243      2.00000
     35      -3.1842      2.00000
     36      -3.1412      2.00000
     37      -3.0790      2.00000
     38      -3.0414      2.00000
     39      -2.9535      2.00000
     40      -2.9029      2.00000
     41      -2.8781      2.00000
     42      -2.8244      2.00000
     43      -2.7815      2.00000
     44      -2.7194      2.00000
     45      -2.7043      2.00000
     46      -2.6608      2.00000
     47      -2.6209      2.00000
     48      -2.5986      2.00000
     49      -2.5876      2.00000
     50      -2.5182      2.00000
     51      -2.5096      2.00000
     52      -2.4907      2.00000
     53      -2.4587      2.00000
     54      -2.4391      2.00000
     55      -2.3846      2.00000
     56      -2.3619      2.00000
     57      -2.3478      2.00000
     58      -2.3028      2.00000
     59      -2.2167      2.00000
     60      -2.1606      2.00000
     61      -2.1205      2.00000
     62      -2.1045      2.00000
     63      -2.0412      2.00000
     64      -1.9828      2.00000
     65      -1.9761      2.00000
     66      -1.8863      2.00000
     67      -1.8822      2.00000
     68      -1.7195      2.00000
     69      -1.7074      2.00000
     70      -1.6693      2.00000
     71      -1.6009      2.00000
     72      -1.5303      2.00000
     73      -1.5225      2.00000
     74      -1.4058      2.00000
     75      -1.3947      2.00000
     76      -1.3743      2.00000
     77      -1.3684      2.00000
     78      -1.2968      2.00000
     79      -1.2765      2.00000
     80      -1.1809      2.00000
     81      -1.1617      2.00000
     82      -1.1488      2.00000
     83      -1.0972      2.00000
     84      -1.0077      2.00000
     85      -0.9860      2.00000
     86      -0.9622      2.00000
     87      -0.9474      2.00000
     88      -0.9045      2.00000
     89      -0.8830      2.00000
     90      -0.8431      2.00000
     91      -0.8069      2.00000
     92      -0.7695      2.00000
     93      -0.7603      2.00000
     94      -0.7389      2.00000
     95      -0.6991      2.00000
     96      -0.6203      2.00000
     97      -0.5905      2.00000
     98      -0.5521      2.00000
     99      -0.5008      2.00000
    100      -0.4706      2.00000
    101      -0.4341      2.00000
    102      -0.4184      2.00000
    103      -0.3840      2.00000
    104      -0.3305      2.00000
    105      -0.3031      2.00000
    106      -0.1808      2.00000
    107      -0.0718      2.00000
    108       0.0885      2.00000
    109       0.3228      2.00000
    110       0.5568      2.00000
    111       1.0759      2.01225
    112       1.3601      1.88948
    113       1.3680      1.85680
    114       1.7092     -0.06390
    115       1.8304     -0.03775
    116       1.9588     -0.00469
    117       2.2879     -0.00000
    118       2.7993     -0.00000
    119       3.0475     -0.00000
    120       3.3746     -0.00000
    121       3.8557     -0.00000
    122       4.2332     -0.00000
    123       4.5756     -0.00000
    124       4.8082     -0.00000
    125       4.8605     -0.00000
    126       5.5046     -0.00000
    127       5.5471     -0.00000
    128       5.8043     -0.00000
    129       5.8484     -0.00000
    130       6.2590     -0.00000
    131       6.4706     -0.00000
    132       6.7091     -0.00000
    133       6.7157     -0.00000
    134       7.1492      0.00000
    135       7.2142      0.00000
    136       7.5573      0.00000

 k-point    13 :       0.1429    0.2857    0.0000
  band No.  band energies     occupation 
      1     -16.7830      2.00000
      2      -6.5649      2.00000
      3      -5.8372      2.00000
      4      -5.3767      2.00000
      5      -5.1650      2.00000
      6      -4.8857      2.00000
      7      -4.8467      2.00000
      8      -4.7317      2.00000
      9      -4.5765      2.00000
     10      -4.5522      2.00000
     11      -4.5055      2.00000
     12      -4.4652      2.00000
     13      -4.4269      2.00000
     14      -4.4195      2.00000
     15      -4.3632      2.00000
     16      -4.2737      2.00000
     17      -4.2241      2.00000
     18      -4.1581      2.00000
     19      -4.1178      2.00000
     20      -4.0307      2.00000
     21      -3.9969      2.00000
     22      -3.9457      2.00000
     23      -3.9137      2.00000
     24      -3.8494      2.00000
     25      -3.7698      2.00000
     26      -3.7363      2.00000
     27      -3.6834      2.00000
     28      -3.6240      2.00000
     29      -3.5119      2.00000
     30      -3.4993      2.00000
     31      -3.4040      2.00000
     32      -3.3715      2.00000
     33      -3.3566      2.00000
     34      -3.3250      2.00000
     35      -3.2717      2.00000
     36      -3.2153      2.00000
     37      -3.1514      2.00000
     38      -3.0909      2.00000
     39      -3.0643      2.00000
     40      -3.0218      2.00000
     41      -2.9769      2.00000
     42      -2.9400      2.00000
     43      -2.8833      2.00000
     44      -2.8302      2.00000
     45      -2.8044      2.00000
     46      -2.7467      2.00000
     47      -2.6932      2.00000
     48      -2.6784      2.00000
     49      -2.6707      2.00000
     50      -2.5986      2.00000
     51      -2.5641      2.00000
     52      -2.5340      2.00000
     53      -2.5106      2.00000
     54      -2.4899      2.00000
     55      -2.4718      2.00000
     56      -2.4203      2.00000
     57      -2.3788      2.00000
     58      -2.3266      2.00000
     59      -2.2794      2.00000
     60      -2.2510      2.00000
     61      -2.2166      2.00000
     62      -2.1543      2.00000
     63      -2.1082      2.00000
     64      -2.0596      2.00000
     65      -2.0245      2.00000
     66      -1.9639      2.00000
     67      -1.9391      2.00000
     68      -1.9015      2.00000
     69      -1.8615      2.00000
     70      -1.8191      2.00000
     71      -1.7905      2.00000
     72      -1.7272      2.00000
     73      -1.7196      2.00000
     74      -1.6684      2.00000
     75      -1.6496      2.00000
     76      -1.6336      2.00000
     77      -1.5734      2.00000
     78      -1.4934      2.00000
     79      -1.4368      2.00000
     80      -1.3806      2.00000
     81      -1.3570      2.00000
     82      -1.3387      2.00000
     83      -1.3089      2.00000
     84      -1.2555      2.00000
     85      -1.2069      2.00000
     86      -1.1563      2.00000
     87      -1.1262      2.00000
     88      -1.0862      2.00000
     89      -1.0236      2.00000
     90      -0.9191      2.00000
     91      -0.8839      2.00000
     92      -0.8649      2.00000
     93      -0.8219      2.00000
     94      -0.7637      2.00000
     95      -0.7407      2.00000
     96      -0.6375      2.00000
     97      -0.6096      2.00000
     98      -0.5777      2.00000
     99      -0.5413      2.00000
    100      -0.5145      2.00000
    101      -0.4796      2.00000
    102      -0.4621      2.00000
    103      -0.4386      2.00000
    104      -0.4040      2.00000
    105      -0.3660      2.00000
    106      -0.2857      2.00000
    107      -0.1030      2.00000
    108       0.1177      2.00000
    109       0.2375      2.00000
    110       0.3324      2.00000
    111       0.5360      2.00000
    112       0.7333      2.00000
    113       1.1578      2.03971
    114       1.6626     -0.00498
    115       2.1464     -0.00004
    116       2.2983     -0.00000
    117       2.6031     -0.00000
    118       3.0808     -0.00000
    119       3.2851     -0.00000
    120       3.7386     -0.00000
    121       4.0072     -0.00000
    122       4.1664     -0.00000
    123       4.4595     -0.00000
    124       4.6253     -0.00000
    125       5.0128     -0.00000
    126       5.7056     -0.00000
    127       6.0313     -0.00000
    128       6.3099     -0.00000
    129       6.5365     -0.00000
    130       6.7922     -0.00000
    131       6.9946      0.00000
    132       7.1388      0.00000
    133       7.3637      0.00000
    134       7.5287      0.00000
    135       7.8653      0.00000
    136       7.9181      0.00000

 k-point    14 :       0.2857    0.2857    0.0000
  band No.  band energies     occupation 
      1     -16.7789      2.00000
      2      -5.9752      2.00000
      3      -5.5370      2.00000
      4      -5.2780      2.00000
      5      -5.2683      2.00000
      6      -5.0352      2.00000
      7      -4.7990      2.00000
      8      -4.6211      2.00000
      9      -4.4244      2.00000
     10      -4.3251      2.00000
     11      -4.2660      2.00000
     12      -4.2467      2.00000
     13      -4.1708      2.00000
     14      -4.1620      2.00000
     15      -4.0898      2.00000
     16      -4.0310      2.00000
     17      -4.0165      2.00000
     18      -3.9740      2.00000
     19      -3.9187      2.00000
     20      -3.8851      2.00000
     21      -3.8294      2.00000
     22      -3.7666      2.00000
     23      -3.7367      2.00000
     24      -3.7072      2.00000
     25      -3.6678      2.00000
     26      -3.6551      2.00000
     27      -3.6052      2.00000
     28      -3.5624      2.00000
     29      -3.5408      2.00000
     30      -3.5166      2.00000
     31      -3.5005      2.00000
     32      -3.4711      2.00000
     33      -3.3975      2.00000
     34      -3.3907      2.00000
     35      -3.3609      2.00000
     36      -3.3162      2.00000
     37      -3.3052      2.00000
     38      -3.2589      2.00000
     39      -3.2384      2.00000
     40      -3.1712      2.00000
     41      -3.1338      2.00000
     42      -3.0892      2.00000
     43      -3.0518      2.00000
     44      -2.9781      2.00000
     45      -2.9652      2.00000
     46      -2.8670      2.00000
     47      -2.8395      2.00000
     48      -2.7932      2.00000
     49      -2.7812      2.00000
     50      -2.7456      2.00000
     51      -2.7304      2.00000
     52      -2.7240      2.00000
     53      -2.6473      2.00000
     54      -2.6341      2.00000
     55      -2.6117      2.00000
     56      -2.5813      2.00000
     57      -2.5480      2.00000
     58      -2.4984      2.00000
     59      -2.4072      2.00000
     60      -2.3354      2.00000
     61      -2.2808      2.00000
     62      -2.2699      2.00000
     63      -2.1898      2.00000
     64      -2.1434      2.00000
     65      -2.0656      2.00000
     66      -2.0580      2.00000
     67      -1.9640      2.00000
     68      -1.9482      2.00000
     69      -1.9262      2.00000
     70      -1.8927      2.00000
     71      -1.8253      2.00000
     72      -1.7918      2.00000
     73      -1.7621      2.00000
     74      -1.6992      2.00000
     75      -1.6605      2.00000
     76      -1.6255      2.00000
     77      -1.5817      2.00000
     78      -1.5605      2.00000
     79      -1.5091      2.00000
     80      -1.4575      2.00000
     81      -1.3821      2.00000
     82      -1.3757      2.00000
     83      -1.3042      2.00000
     84      -1.2708      2.00000
     85      -1.2165      2.00000
     86      -1.1910      2.00000
     87      -1.1758      2.00000
     88      -1.0225      2.00000
     89      -0.9999      2.00000
     90      -0.9640      2.00000
     91      -0.9101      2.00000
     92      -0.9072      2.00000
     93      -0.8795      2.00000
     94      -0.7880      2.00000
     95      -0.7633      2.00000
     96      -0.7429      2.00000
     97      -0.7250      2.00000
     98      -0.6547      2.00000
     99      -0.6157      2.00000
    100      -0.5686      2.00000
    101      -0.5578      2.00000
    102      -0.5144      2.00000
    103      -0.5009      2.00000
    104      -0.4928      2.00000
    105      -0.4737      2.00000
    106      -0.4181      2.00000
    107      -0.4147      2.00000
    108      -0.2986      2.00000
    109      -0.0277      2.00000
    110       0.0428      2.00000
    111       0.2339      2.00000
    112       0.7792      2.00001
    113       1.0716      2.01136
    114       1.4579      1.28261
    115       1.8677     -0.02316
    116       2.4540     -0.00000
    117       2.8928     -0.00000
    118       3.4124     -0.00000
    119       3.7740     -0.00000
    120       3.8162     -0.00000
    121       3.9468     -0.00000
    122       4.5373     -0.00000
    123       4.7588     -0.00000
    124       5.0108     -0.00000
    125       5.2116     -0.00000
    126       5.8178     -0.00000
    127       6.1525     -0.00000
    128       6.2751     -0.00000
    129       6.6044     -0.00000
    130       6.6986     -0.00000
    131       7.0136      0.00000
    132       7.4469      0.00000
    133       7.6189      0.00000
    134       7.7863      0.00000
    135       7.8688      0.00000
    136       8.1510      0.00000

 k-point    15 :       0.4286    0.2857    0.0000
  band No.  band energies     occupation 
      1     -16.7789      2.00000
      2      -5.9750      2.00000
      3      -5.5371      2.00000
      4      -5.2780      2.00000
      5      -5.2681      2.00000
      6      -5.0349      2.00000
      7      -4.7995      2.00000
      8      -4.6210      2.00000
      9      -4.4243      2.00000
     10      -4.3247      2.00000
     11      -4.2651      2.00000
     12      -4.2463      2.00000
     13      -4.1705      2.00000
     14      -4.1625      2.00000
     15      -4.0897      2.00000
     16      -4.0307      2.00000
     17      -4.0160      2.00000
     18      -3.9752      2.00000
     19      -3.9190      2.00000
     20      -3.8848      2.00000
     21      -3.8293      2.00000
     22      -3.7673      2.00000
     23      -3.7373      2.00000
     24      -3.7075      2.00000
     25      -3.6679      2.00000
     26      -3.6554      2.00000
     27      -3.6050      2.00000
     28      -3.5628      2.00000
     29      -3.5412      2.00000
     30      -3.5165      2.00000
     31      -3.5004      2.00000
     32      -3.4714      2.00000
     33      -3.3970      2.00000
     34      -3.3911      2.00000
     35      -3.3602      2.00000
     36      -3.3162      2.00000
     37      -3.3049      2.00000
     38      -3.2587      2.00000
     39      -3.2385      2.00000
     40      -3.1712      2.00000
     41      -3.1336      2.00000
     42      -3.0899      2.00000
     43      -3.0522      2.00000
     44      -2.9790      2.00000
     45      -2.9647      2.00000
     46      -2.8663      2.00000
     47      -2.8388      2.00000
     48      -2.7929      2.00000
     49      -2.7809      2.00000
     50      -2.7464      2.00000
     51      -2.7318      2.00000
     52      -2.7256      2.00000
     53      -2.6476      2.00000
     54      -2.6343      2.00000
     55      -2.6116      2.00000
     56      -2.5810      2.00000
     57      -2.5467      2.00000
     58      -2.4991      2.00000
     59      -2.4056      2.00000
     60      -2.3354      2.00000
     61      -2.2817      2.00000
     62      -2.2702      2.00000
     63      -2.1896      2.00000
     64      -2.1434      2.00000
     65      -2.0655      2.00000
     66      -2.0581      2.00000
     67      -1.9638      2.00000
     68      -1.9489      2.00000
     69      -1.9263      2.00000
     70      -1.8914      2.00000
     71      -1.8243      2.00000
     72      -1.7914      2.00000
     73      -1.7620      2.00000
     74      -1.6999      2.00000
     75      -1.6602      2.00000
     76      -1.6250      2.00000
     77      -1.5822      2.00000
     78      -1.5604      2.00000
     79      -1.5094      2.00000
     80      -1.4571      2.00000
     81      -1.3826      2.00000
     82      -1.3766      2.00000
     83      -1.3044      2.00000
     84      -1.2709      2.00000
     85      -1.2162      2.00000
     86      -1.1908      2.00000
     87      -1.1756      2.00000
     88      -1.0224      2.00000
     89      -0.9997      2.00000
     90      -0.9640      2.00000
     91      -0.9100      2.00000
     92      -0.9068      2.00000
     93      -0.8796      2.00000
     94      -0.7879      2.00000
     95      -0.7633      2.00000
     96      -0.7431      2.00000
     97      -0.7248      2.00000
     98      -0.6550      2.00000
     99      -0.6166      2.00000
    100      -0.5688      2.00000
    101      -0.5581      2.00000
    102      -0.5136      2.00000
    103      -0.5006      2.00000
    104      -0.4928      2.00000
    105      -0.4738      2.00000
    106      -0.4183      2.00000
    107      -0.4146      2.00000
    108      -0.2980      2.00000
    109      -0.0279      2.00000
    110       0.0427      2.00000
    111       0.2341      2.00000
    112       0.7799      2.00001
    113       1.0718      2.01142
    114       1.4582      1.28076
    115       1.8676     -0.02318
    116       2.4539     -0.00000
    117       2.8932     -0.00000
    118       3.4124     -0.00000
    119       3.7731     -0.00000
    120       3.8177     -0.00000
    121       3.9456     -0.00000
    122       4.5381     -0.00000
    123       4.7601     -0.00000
    124       5.0109     -0.00000
    125       5.2103     -0.00000
    126       5.8188     -0.00000
    127       6.1528     -0.00000
    128       6.2752     -0.00000
    129       6.6057     -0.00000
    130       6.6966     -0.00000
    131       7.0129      0.00000
    132       7.4465      0.00000
    133       7.6187      0.00000
    134       7.7852      0.00000
    135       7.8678      0.00000
    136       8.1510      0.00000

 k-point    16 :      -0.4286    0.2857    0.0000
  band No.  band energies     occupation 
      1     -16.7830      2.00000
      2      -6.5647      2.00000
      3      -5.8375      2.00000
      4      -5.3759      2.00000
      5      -5.1645      2.00000
      6      -4.8858      2.00000
      7      -4.8469      2.00000
      8      -4.7318      2.00000
      9      -4.5766      2.00000
     10      -4.5517      2.00000
     11      -4.5052      2.00000
     12      -4.4650      2.00000
     13      -4.4268      2.00000
     14      -4.4194      2.00000
     15      -4.3629      2.00000
     16      -4.2736      2.00000
     17      -4.2242      2.00000
     18      -4.1583      2.00000
     19      -4.1179      2.00000
     20      -4.0309      2.00000
     21      -3.9962      2.00000
     22      -3.9463      2.00000
     23      -3.9136      2.00000
     24      -3.8499      2.00000
     25      -3.7700      2.00000
     26      -3.7367      2.00000
     27      -3.6839      2.00000
     28      -3.6242      2.00000
     29      -3.5119      2.00000
     30      -3.5008      2.00000
     31      -3.4042      2.00000
     32      -3.3715      2.00000
     33      -3.3565      2.00000
     34      -3.3251      2.00000
     35      -3.2716      2.00000
     36      -3.2151      2.00000
     37      -3.1511      2.00000
     38      -3.0909      2.00000
     39      -3.0640      2.00000
     40      -3.0218      2.00000
     41      -2.9789      2.00000
     42      -2.9403      2.00000
     43      -2.8829      2.00000
     44      -2.8309      2.00000
     45      -2.8047      2.00000
     46      -2.7462      2.00000
     47      -2.6942      2.00000
     48      -2.6788      2.00000
     49      -2.6703      2.00000
     50      -2.5978      2.00000
     51      -2.5642      2.00000
     52      -2.5346      2.00000
     53      -2.5105      2.00000
     54      -2.4895      2.00000
     55      -2.4716      2.00000
     56      -2.4192      2.00000
     57      -2.3793      2.00000
     58      -2.3258      2.00000
     59      -2.2793      2.00000
     60      -2.2515      2.00000
     61      -2.2173      2.00000
     62      -2.1548      2.00000
     63      -2.1086      2.00000
     64      -2.0584      2.00000
     65      -2.0251      2.00000
     66      -1.9642      2.00000
     67      -1.9382      2.00000
     68      -1.9011      2.00000
     69      -1.8614      2.00000
     70      -1.8199      2.00000
     71      -1.7903      2.00000
     72      -1.7272      2.00000
     73      -1.7199      2.00000
     74      -1.6686      2.00000
     75      -1.6498      2.00000
     76      -1.6326      2.00000
     77      -1.5738      2.00000
     78      -1.4934      2.00000
     79      -1.4362      2.00000
     80      -1.3807      2.00000
     81      -1.3568      2.00000
     82      -1.3383      2.00000
     83      -1.3087      2.00000
     84      -1.2550      2.00000
     85      -1.2073      2.00000
     86      -1.1571      2.00000
     87      -1.1262      2.00000
     88      -1.0857      2.00000
     89      -1.0241      2.00000
     90      -0.9188      2.00000
     91      -0.8839      2.00000
     92      -0.8646      2.00000
     93      -0.8219      2.00000
     94      -0.7635      2.00000
     95      -0.7402      2.00000
     96      -0.6377      2.00000
     97      -0.6102      2.00000
     98      -0.5777      2.00000
     99      -0.5421      2.00000
    100      -0.5151      2.00000
    101      -0.4795      2.00000
    102      -0.4627      2.00000
    103      -0.4390      2.00000
    104      -0.4046      2.00000
    105      -0.3655      2.00000
    106      -0.2843      2.00000
    107      -0.1032      2.00000
    108       0.1182      2.00000
    109       0.2379      2.00000
    110       0.3325      2.00000
    111       0.5375      2.00000
    112       0.7337      2.00000
    113       1.1584      2.03996
    114       1.6626     -0.00513
    115       2.1471     -0.00004
    116       2.2988     -0.00000
    117       2.6032     -0.00000
    118       3.0802     -0.00000
    119       3.2852     -0.00000
    120       3.7388     -0.00000
    121       4.0077     -0.00000
    122       4.1667     -0.00000
    123       4.4594     -0.00000
    124       4.6253     -0.00000
    125       5.0131     -0.00000
    126       5.7065     -0.00000
    127       6.0294     -0.00000
    128       6.3109     -0.00000
    129       6.5362     -0.00000
    130       6.7923     -0.00000
    131       6.9942      0.00000
    132       7.1388      0.00000
    133       7.3642      0.00000
    134       7.5287      0.00000
    135       7.8635      0.00000
    136       7.9175      0.00000

 k-point    17 :      -0.2857    0.2857    0.0000
  band No.  band energies     occupation 
      1     -16.7882      2.00000
      2      -6.9608      2.00000
      3      -6.1635      2.00000
      4      -5.3755      2.00000
      5      -5.2200      2.00000
      6      -5.0562      2.00000
      7      -4.8528      2.00000
      8      -4.8006      2.00000
      9      -4.7967      2.00000
     10      -4.7575      2.00000
     11      -4.7106      2.00000
     12      -4.6958      2.00000
     13      -4.6280      2.00000
     14      -4.5432      2.00000
     15      -4.4894      2.00000
     16      -4.4135      2.00000
     17      -4.3922      2.00000
     18      -4.3406      2.00000
     19      -4.3159      2.00000
     20      -4.2695      2.00000
     21      -4.2207      2.00000
     22      -4.1673      2.00000
     23      -4.0140      2.00000
     24      -3.9903      2.00000
     25      -3.8839      2.00000
     26      -3.8600      2.00000
     27      -3.8397      2.00000
     28      -3.6713      2.00000
     29      -3.6105      2.00000
     30      -3.4068      2.00000
     31      -3.3787      2.00000
     32      -3.3550      2.00000
     33      -3.2706      2.00000
     34      -3.2241      2.00000
     35      -3.1835      2.00000
     36      -3.1423      2.00000
     37      -3.0793      2.00000
     38      -3.0419      2.00000
     39      -2.9538      2.00000
     40      -2.9033      2.00000
     41      -2.8775      2.00000
     42      -2.8246      2.00000
     43      -2.7821      2.00000
     44      -2.7192      2.00000
     45      -2.7037      2.00000
     46      -2.6609      2.00000
     47      -2.6206      2.00000
     48      -2.5987      2.00000
     49      -2.5872      2.00000
     50      -2.5183      2.00000
     51      -2.5100      2.00000
     52      -2.4910      2.00000
     53      -2.4585      2.00000
     54      -2.4389      2.00000
     55      -2.3839      2.00000
     56      -2.3616      2.00000
     57      -2.3480      2.00000
     58      -2.3025      2.00000
     59      -2.2165      2.00000
     60      -2.1604      2.00000
     61      -2.1205      2.00000
     62      -2.1049      2.00000
     63      -2.0413      2.00000
     64      -1.9830      2.00000
     65      -1.9764      2.00000
     66      -1.8852      2.00000
     67      -1.8828      2.00000
     68      -1.7192      2.00000
     69      -1.7082      2.00000
     70      -1.6699      2.00000
     71      -1.6004      2.00000
     72      -1.5298      2.00000
     73      -1.5228      2.00000
     74      -1.4058      2.00000
     75      -1.3947      2.00000
     76      -1.3743      2.00000
     77      -1.3686      2.00000
     78      -1.2974      2.00000
     79      -1.2764      2.00000
     80      -1.1804      2.00000
     81      -1.1612      2.00000
     82      -1.1487      2.00000
     83      -1.0971      2.00000
     84      -1.0076      2.00000
     85      -0.9856      2.00000
     86      -0.9625      2.00000
     87      -0.9476      2.00000
     88      -0.9045      2.00000
     89      -0.8833      2.00000
     90      -0.8431      2.00000
     91      -0.8071      2.00000
     92      -0.7692      2.00000
     93      -0.7605      2.00000
     94      -0.7387      2.00000
     95      -0.6990      2.00000
     96      -0.6199      2.00000
     97      -0.5912      2.00000
     98      -0.5521      2.00000
     99      -0.5012      2.00000
    100      -0.4710      2.00000
    101      -0.4353      2.00000
    102      -0.4190      2.00000
    103      -0.3846      2.00000
    104      -0.3313      2.00000
    105      -0.3027      2.00000
    106      -0.1793      2.00000
    107      -0.0714      2.00000
    108       0.0895      2.00000
    109       0.3237      2.00000
    110       0.5572      2.00000
    111       1.0766      2.01239
    112       1.3600      1.88979
    113       1.3680      1.85688
    114       1.7098     -0.06421
    115       1.8307     -0.03761
    116       1.9590     -0.00468
    117       2.2895     -0.00000
    118       2.7992     -0.00000
    119       3.0476     -0.00000
    120       3.3750     -0.00000
    121       3.8554     -0.00000
    122       4.2321     -0.00000
    123       4.5748     -0.00000
    124       4.8085     -0.00000
    125       4.8615     -0.00000
    126       5.5047     -0.00000
    127       5.5470     -0.00000
    128       5.8044     -0.00000
    129       5.8487     -0.00000
    130       6.2587     -0.00000
    131       6.4699     -0.00000
    132       6.7095     -0.00000
    133       6.7145     -0.00000
    134       7.1496      0.00000
    135       7.2142      0.00000
    136       7.5572      0.00000

 k-point    18 :      -0.1429    0.2857    0.0000
  band No.  band energies     occupation 
      1     -16.7904      2.00000
      2      -7.0982      2.00000
      3      -6.2839      2.00000
      4      -5.4037      2.00000
      5      -5.1847      2.00000
      6      -5.0595      2.00000
      7      -5.0084      2.00000
      8      -4.8607      2.00000
      9      -4.8367      2.00000
     10      -4.8050      2.00000
     11      -4.7882      2.00000
     12      -4.7344      2.00000
     13      -4.6871      2.00000
     14      -4.6359      2.00000
     15      -4.5576      2.00000
     16      -4.5062      2.00000
     17      -4.4645      2.00000
     18      -4.4221      2.00000
     19      -4.4144      2.00000
     20      -4.3456      2.00000
     21      -4.2778      2.00000
     22      -4.1699      2.00000
     23      -4.1329      2.00000
     24      -3.9862      2.00000
     25      -3.9487      2.00000
     26      -3.9177      2.00000
     27      -3.9141      2.00000
     28      -3.7024      2.00000
     29      -3.6562      2.00000
     30      -3.3635      2.00000
     31      -3.3326      2.00000
     32      -3.2894      2.00000
     33      -3.2698      2.00000
     34      -3.2423      2.00000
     35      -3.2077      2.00000
     36      -3.1002      2.00000
     37      -3.0528      2.00000
     38      -2.9800      2.00000
     39      -2.9137      2.00000
     40      -2.8428      2.00000
     41      -2.8277      2.00000
     42      -2.8014      2.00000
     43      -2.7906      2.00000
     44      -2.7389      2.00000
     45      -2.7219      2.00000
     46      -2.6680      2.00000
     47      -2.6414      2.00000
     48      -2.6170      2.00000
     49      -2.6046      2.00000
     50      -2.5619      2.00000
     51      -2.5142      2.00000
     52      -2.4954      2.00000
     53      -2.4817      2.00000
     54      -2.4195      2.00000
     55      -2.3918      2.00000
     56      -2.3012      2.00000
     57      -2.2984      2.00000
     58      -2.2277      2.00000
     59      -2.2062      2.00000
     60      -2.1719      2.00000
     61      -2.1334      2.00000
     62      -1.9825      2.00000
     63      -1.9748      2.00000
     64      -1.9068      2.00000
     65      -1.8853      2.00000
     66      -1.8012      2.00000
     67      -1.7410      2.00000
     68      -1.7055      2.00000
     69      -1.6697      2.00000
     70      -1.6277      2.00000
     71      -1.5002      2.00000
     72      -1.4868      2.00000
     73      -1.4577      2.00000
     74      -1.3542      2.00000
     75      -1.3248      2.00000
     76      -1.2627      2.00000
     77      -1.2347      2.00000
     78      -1.1879      2.00000
     79      -1.1694      2.00000
     80      -1.1255      2.00000
     81      -1.1200      2.00000
     82      -1.0653      2.00000
     83      -1.0501      2.00000
     84      -0.9688      2.00000
     85      -0.9119      2.00000
     86      -0.8482      2.00000
     87      -0.8384      2.00000
     88      -0.7965      2.00000
     89      -0.7829      2.00000
     90      -0.7738      2.00000
     91      -0.7276      2.00000
     92      -0.6795      2.00000
     93      -0.6408      2.00000
     94      -0.6058      2.00000
     95      -0.5677      2.00000
     96      -0.5345      2.00000
     97      -0.5170      2.00000
     98      -0.4983      2.00000
     99      -0.4817      2.00000
    100      -0.4542      2.00000
    101      -0.3905      2.00000
    102      -0.3112      2.00000
    103      -0.3058      2.00000
    104      -0.2498      2.00000
    105      -0.1070      2.00000
    106       0.0022      2.00000
    107       0.0335      2.00000
    108       0.2560      2.00000
    109       0.2945      2.00000
    110       0.4042      2.00000
    111       0.5909      2.00000
    112       0.7333      2.00000
    113       1.3941      1.72796
    114       1.6920     -0.05043
    115       1.8883     -0.01693
    116       2.6005     -0.00000
    117       2.7562     -0.00000
    118       2.8763     -0.00000
    119       3.0452     -0.00000
    120       3.1903     -0.00000
    121       3.4965     -0.00000
    122       3.7797     -0.00000
    123       4.2321     -0.00000
    124       4.6238     -0.00000
    125       4.8735     -0.00000
    126       5.2034     -0.00000
    127       5.6614     -0.00000
    128       5.6731     -0.00000
    129       5.8551     -0.00000
    130       6.1929     -0.00000
    131       6.1976     -0.00000
    132       6.3183     -0.00000
    133       6.5918     -0.00000
    134       7.1013      0.00000
    135       7.1778      0.00000
    136       7.4027      0.00000

 k-point    19 :       0.0000    0.4286    0.0000
  band No.  band energies     occupation 
      1     -16.7814      2.00000
      2      -6.3330      2.00000
      3      -5.7345      2.00000
      4      -5.6209      2.00000
      5      -5.2605      2.00000
      6      -4.9565      2.00000
      7      -4.6999      2.00000
      8      -4.5650      2.00000
      9      -4.4950      2.00000
     10      -4.4890      2.00000
     11      -4.4448      2.00000
     12      -4.4127      2.00000
     13      -4.3538      2.00000
     14      -4.2745      2.00000
     15      -4.2663      2.00000
     16      -4.1932      2.00000
     17      -4.1344      2.00000
     18      -4.0672      2.00000
     19      -4.0450      2.00000
     20      -3.9881      2.00000
     21      -3.9552      2.00000
     22      -3.8916      2.00000
     23      -3.8798      2.00000
     24      -3.7932      2.00000
     25      -3.7391      2.00000
     26      -3.6633      2.00000
     27      -3.6364      2.00000
     28      -3.6214      2.00000
     29      -3.5039      2.00000
     30      -3.5003      2.00000
     31      -3.3769      2.00000
     32      -3.3330      2.00000
     33      -3.3244      2.00000
     34      -3.2715      2.00000
     35      -3.2513      2.00000
     36      -3.2462      2.00000
     37      -3.2198      2.00000
     38      -3.1714      2.00000
     39      -3.1511      2.00000
     40      -3.1156      2.00000
     41      -3.0572      2.00000
     42      -2.9413      2.00000
     43      -2.8865      2.00000
     44      -2.8401      2.00000
     45      -2.8182      2.00000
     46      -2.7764      2.00000
     47      -2.7341      2.00000
     48      -2.6766      2.00000
     49      -2.6718      2.00000
     50      -2.6489      2.00000
     51      -2.5914      2.00000
     52      -2.5763      2.00000
     53      -2.5353      2.00000
     54      -2.4847      2.00000
     55      -2.4774      2.00000
     56      -2.4461      2.00000
     57      -2.3382      2.00000
     58      -2.3113      2.00000
     59      -2.2858      2.00000
     60      -2.2041      2.00000
     61      -2.1900      2.00000
     62      -2.1395      2.00000
     63      -2.1133      2.00000
     64      -2.0949      2.00000
     65      -2.0650      2.00000
     66      -2.0599      2.00000
     67      -1.9839      2.00000
     68      -1.9819      2.00000
     69      -1.9300      2.00000
     70      -1.9289      2.00000
     71      -1.9027      2.00000
     72      -1.8601      2.00000
     73      -1.7226      2.00000
     74      -1.7198      2.00000
     75      -1.6784      2.00000
     76      -1.6546      2.00000
     77      -1.6160      2.00000
     78      -1.5436      2.00000
     79      -1.5359      2.00000
     80      -1.4707      2.00000
     81      -1.4458      2.00000
     82      -1.3889      2.00000
     83      -1.3776      2.00000
     84      -1.3339      2.00000
     85      -1.3090      2.00000
     86      -1.2920      2.00000
     87      -1.2462      2.00000
     88      -1.2423      2.00000
     89      -1.1505      2.00000
     90      -1.1061      2.00000
     91      -1.0996      2.00000
     92      -1.0543      2.00000
     93      -0.9439      2.00000
     94      -0.8788      2.00000
     95      -0.8482      2.00000
     96      -0.8206      2.00000
     97      -0.7332      2.00000
     98      -0.6832      2.00000
     99      -0.5834      2.00000
    100      -0.4783      2.00000
    101      -0.4305      2.00000
    102      -0.4257      2.00000
    103      -0.3741      2.00000
    104      -0.3425      2.00000
    105      -0.3259      2.00000
    106      -0.2244      2.00000
    107      -0.1829      2.00000
    108       0.0761      2.00000
    109       0.5681      2.00000
    110       0.6329      2.00000
    111       0.9821      2.00186
    112       1.3356      1.97030
    113       1.3508      1.92361
    114       1.5699      0.39229
    115       1.8707     -0.02218
    116       2.0182     -0.00126
    117       2.4619     -0.00000
    118       2.8897     -0.00000
    119       2.9529     -0.00000
    120       3.3328     -0.00000
    121       4.1977     -0.00000
    122       4.3023     -0.00000
    123       4.5942     -0.00000
    124       5.4330     -0.00000
    125       5.5294     -0.00000
    126       5.7730     -0.00000
    127       6.2307     -0.00000
    128       6.3100     -0.00000
    129       6.6625     -0.00000
    130       6.7969     -0.00000
    131       6.8674     -0.00000
    132       7.3151      0.00000
    133       7.3481      0.00000
    134       7.5656      0.00000
    135       7.7925      0.00000
    136       8.1005      0.00000

 k-point    20 :       0.1429    0.4286    0.0000
  band No.  band energies     occupation 
      1     -16.7796      2.00000
      2      -5.9226      2.00000
      3      -5.8799      2.00000
      4      -5.4838      2.00000
      5      -5.2122      2.00000
      6      -4.9365      2.00000
      7      -4.6781      2.00000
      8      -4.5527      2.00000
      9      -4.4944      2.00000
     10      -4.4202      2.00000
     11      -4.3443      2.00000
     12      -4.2936      2.00000
     13      -4.2448      2.00000
     14      -4.2192      2.00000
     15      -4.1160      2.00000
     16      -4.0848      2.00000
     17      -4.0308      2.00000
     18      -4.0025      2.00000
     19      -3.9549      2.00000
     20      -3.9406      2.00000
     21      -3.8438      2.00000
     22      -3.8358      2.00000
     23      -3.7543      2.00000
     24      -3.7119      2.00000
     25      -3.6889      2.00000
     26      -3.6689      2.00000
     27      -3.5763      2.00000
     28      -3.5617      2.00000
     29      -3.5139      2.00000
     30      -3.5011      2.00000
     31      -3.4869      2.00000
     32      -3.4260      2.00000
     33      -3.4049      2.00000
     34      -3.3544      2.00000
     35      -3.3006      2.00000
     36      -3.2985      2.00000
     37      -3.2593      2.00000
     38      -3.2147      2.00000
     39      -3.1812      2.00000
     40      -3.0791      2.00000
     41      -3.0614      2.00000
     42      -3.0315      2.00000
     43      -3.0186      2.00000
     44      -2.9435      2.00000
     45      -2.9148      2.00000
     46      -2.8844      2.00000
     47      -2.8226      2.00000
     48      -2.7611      2.00000
     49      -2.7518      2.00000
     50      -2.6972      2.00000
     51      -2.6611      2.00000
     52      -2.6449      2.00000
     53      -2.5745      2.00000
     54      -2.5598      2.00000
     55      -2.5425      2.00000
     56      -2.5141      2.00000
     57      -2.4929      2.00000
     58      -2.4643      2.00000
     59      -2.3166      2.00000
     60      -2.3055      2.00000
     61      -2.2630      2.00000
     62      -2.2404      2.00000
     63      -2.1878      2.00000
     64      -2.1325      2.00000
     65      -2.1150      2.00000
     66      -2.0937      2.00000
     67      -1.9833      2.00000
     68      -1.9207      2.00000
     69      -1.8870      2.00000
     70      -1.8746      2.00000
     71      -1.8459      2.00000
     72      -1.7886      2.00000
     73      -1.7641      2.00000
     74      -1.7089      2.00000
     75      -1.7020      2.00000
     76      -1.6670      2.00000
     77      -1.6117      2.00000
     78      -1.5782      2.00000
     79      -1.5582      2.00000
     80      -1.5296      2.00000
     81      -1.4690      2.00000
     82      -1.4196      2.00000
     83      -1.3721      2.00000
     84      -1.3551      2.00000
     85      -1.2603      2.00000
     86      -1.2381      2.00000
     87      -1.2183      2.00000
     88      -1.1956      2.00000
     89      -1.1291      2.00000
     90      -1.0626      2.00000
     91      -1.0365      2.00000
     92      -0.9854      2.00000
     93      -0.9669      2.00000
     94      -0.8950      2.00000
     95      -0.8708      2.00000
     96      -0.8037      2.00000
     97      -0.7893      2.00000
     98      -0.7422      2.00000
     99      -0.5733      2.00000
    100      -0.5197      2.00000
    101      -0.4863      2.00000
    102      -0.4591      2.00000
    103      -0.4559      2.00000
    104      -0.4109      2.00000
    105      -0.3202      2.00000
    106      -0.2887      2.00000
    107      -0.2519      2.00000
    108       0.0519      2.00000
    109       0.2644      2.00000
    110       0.3572      2.00000
    111       0.6683      2.00000
    112       0.8212      2.00002
    113       1.1313      2.02864
    114       1.5325      0.66393
    115       1.9737     -0.00344
    116       2.5110     -0.00000
    117       2.7447     -0.00000
    118       2.9278     -0.00000
    119       3.1771     -0.00000
    120       3.4490     -0.00000
    121       4.3483     -0.00000
    122       4.5105     -0.00000
    123       5.1102     -0.00000
    124       5.1503     -0.00000
    125       5.2317     -0.00000
    126       5.4548     -0.00000
    127       6.0783     -0.00000
    128       6.1981     -0.00000
    129       6.9151     -0.00000
    130       7.1433      0.00000
    131       7.2013      0.00000
    132       7.3832      0.00000
    133       7.5112      0.00000
    134       7.9449      0.00000
    135       7.9518      0.00000
    136       8.1713      0.00000

 k-point    21 :       0.2857    0.4286    0.0000
  band No.  band energies     occupation 
      1     -16.7789      2.00000
      2      -5.9741      2.00000
      3      -5.5368      2.00000
      4      -5.2773      2.00000
      5      -5.2684      2.00000
      6      -5.0351      2.00000
      7      -4.7998      2.00000
      8      -4.6210      2.00000
      9      -4.4236      2.00000
     10      -4.3236      2.00000
     11      -4.2612      2.00000
     12      -4.2452      2.00000
     13      -4.1691      2.00000
     14      -4.1637      2.00000
     15      -4.0881      2.00000
     16      -4.0296      2.00000
     17      -4.0160      2.00000
     18      -3.9783      2.00000
     19      -3.9191      2.00000
     20      -3.8849      2.00000
     21      -3.8292      2.00000
     22      -3.7683      2.00000
     23      -3.7383      2.00000
     24      -3.7065      2.00000
     25      -3.6682      2.00000
     26      -3.6565      2.00000
     27      -3.6043      2.00000
     28      -3.5645      2.00000
     29      -3.5417      2.00000
     30      -3.5164      2.00000
     31      -3.5004      2.00000
     32      -3.4716      2.00000
     33      -3.3964      2.00000
     34      -3.3905      2.00000
     35      -3.3587      2.00000
     36      -3.3159      2.00000
     37      -3.3052      2.00000
     38      -3.2593      2.00000
     39      -3.2401      2.00000
     40      -3.1696      2.00000
     41      -3.1336      2.00000
     42      -3.0902      2.00000
     43      -3.0526      2.00000
     44      -2.9801      2.00000
     45      -2.9658      2.00000
     46      -2.8661      2.00000
     47      -2.8383      2.00000
     48      -2.7919      2.00000
     49      -2.7803      2.00000
     50      -2.7487      2.00000
     51      -2.7348      2.00000
     52      -2.7289      2.00000
     53      -2.6485      2.00000
     54      -2.6345      2.00000
     55      -2.6117      2.00000
     56      -2.5818      2.00000
     57      -2.5481      2.00000
     58      -2.5021      2.00000
     59      -2.4000      2.00000
     60      -2.3352      2.00000
     61      -2.2842      2.00000
     62      -2.2717      2.00000
     63      -2.1919      2.00000
     64      -2.1405      2.00000
     65      -2.0654      2.00000
     66      -2.0564      2.00000
     67      -1.9652      2.00000
     68      -1.9506      2.00000
     69      -1.9274      2.00000
     70      -1.8891      2.00000
     71      -1.8207      2.00000
     72      -1.7899      2.00000
     73      -1.7611      2.00000
     74      -1.7008      2.00000
     75      -1.6600      2.00000
     76      -1.6246      2.00000
     77      -1.5837      2.00000
     78      -1.5610      2.00000
     79      -1.5107      2.00000
     80      -1.4565      2.00000
     81      -1.3828      2.00000
     82      -1.3778      2.00000
     83      -1.3044      2.00000
     84      -1.2712      2.00000
     85      -1.2165      2.00000
     86      -1.1902      2.00000
     87      -1.1755      2.00000
     88      -1.0212      2.00000
     89      -0.9977      2.00000
     90      -0.9639      2.00000
     91      -0.9102      2.00000
     92      -0.9064      2.00000
     93      -0.8792      2.00000
     94      -0.7878      2.00000
     95      -0.7636      2.00000
     96      -0.7433      2.00000
     97      -0.7249      2.00000
     98      -0.6560      2.00000
     99      -0.6201      2.00000
    100      -0.5690      2.00000
    101      -0.5590      2.00000
    102      -0.5120      2.00000
    103      -0.5000      2.00000
    104      -0.4918      2.00000
    105      -0.4735      2.00000
    106      -0.4185      2.00000
    107      -0.4140      2.00000
    108      -0.2962      2.00000
    109      -0.0283      2.00000
    110       0.0422      2.00000
    111       0.2332      2.00000
    112       0.7822      2.00001
    113       1.0729      2.01164
    114       1.4577      1.28464
    115       1.8679     -0.02309
    116       2.4538     -0.00000
    117       2.8956     -0.00000
    118       3.4118     -0.00000
    119       3.7722     -0.00000
    120       3.8200     -0.00000
    121       3.9431     -0.00000
    122       4.5386     -0.00000
    123       4.7641     -0.00000
    124       5.0143     -0.00000
    125       5.2119     -0.00000
    126       5.8154     -0.00000
    127       6.1511     -0.00000
    128       6.2748     -0.00000
    129       6.6077     -0.00000
    130       6.6975     -0.00000
    131       7.0111      0.00000
    132       7.4420      0.00000
    133       7.6165      0.00000
    134       7.7862      0.00000
    135       7.8680      0.00000
    136       8.1498      0.00000

 k-point    22 :       0.4286    0.4286    0.0000
  band No.  band energies     occupation 
      1     -16.7796      2.00000
      2      -5.9223      2.00000
      3      -5.8792      2.00000
      4      -5.4844      2.00000
      5      -5.2122      2.00000
      6      -4.9367      2.00000
      7      -4.6783      2.00000
      8      -4.5526      2.00000
      9      -4.4936      2.00000
     10      -4.4193      2.00000
     11      -4.3437      2.00000
     12      -4.2930      2.00000
     13      -4.2436      2.00000
     14      -4.2190      2.00000
     15      -4.1161      2.00000
     16      -4.0845      2.00000
     17      -4.0318      2.00000
     18      -4.0029      2.00000
     19      -3.9566      2.00000
     20      -3.9417      2.00000
     21      -3.8440      2.00000
     22      -3.8357      2.00000
     23      -3.7549      2.00000
     24      -3.7124      2.00000
     25      -3.6887      2.00000
     26      -3.6682      2.00000
     27      -3.5761      2.00000
     28      -3.5619      2.00000
     29      -3.5140      2.00000
     30      -3.5010      2.00000
     31      -3.4868      2.00000
     32      -3.4256      2.00000
     33      -3.4055      2.00000
     34      -3.3552      2.00000
     35      -3.3008      2.00000
     36      -3.2989      2.00000
     37      -3.2594      2.00000
     38      -3.2153      2.00000
     39      -3.1816      2.00000
     40      -3.0802      2.00000
     41      -3.0615      2.00000
     42      -3.0316      2.00000
     43      -3.0189      2.00000
     44      -2.9424      2.00000
     45      -2.9155      2.00000
     46      -2.8846      2.00000
     47      -2.8222      2.00000
     48      -2.7608      2.00000
     49      -2.7523      2.00000
     50      -2.6967      2.00000
     51      -2.6615      2.00000
     52      -2.6450      2.00000
     53      -2.5735      2.00000
     54      -2.5594      2.00000
     55      -2.5439      2.00000
     56      -2.5144      2.00000
     57      -2.4918      2.00000
     58      -2.4639      2.00000
     59      -2.3159      2.00000
     60      -2.3054      2.00000
     61      -2.2628      2.00000
     62      -2.2406      2.00000
     63      -2.1879      2.00000
     64      -2.1325      2.00000
     65      -2.1148      2.00000
     66      -2.0935      2.00000
     67      -1.9828      2.00000
     68      -1.9212      2.00000
     69      -1.8875      2.00000
     70      -1.8750      2.00000
     71      -1.8458      2.00000
     72      -1.7867      2.00000
     73      -1.7648      2.00000
     74      -1.7095      2.00000
     75      -1.7022      2.00000
     76      -1.6668      2.00000
     77      -1.6114      2.00000
     78      -1.5784      2.00000
     79      -1.5582      2.00000
     80      -1.5305      2.00000
     81      -1.4702      2.00000
     82      -1.4201      2.00000
     83      -1.3721      2.00000
     84      -1.3548      2.00000
     85      -1.2609      2.00000
     86      -1.2380      2.00000
     87      -1.2183      2.00000
     88      -1.1955      2.00000
     89      -1.1292      2.00000
     90      -1.0623      2.00000
     91      -1.0355      2.00000
     92      -0.9851      2.00000
     93      -0.9664      2.00000
     94      -0.8954      2.00000
     95      -0.8706      2.00000
     96      -0.8036      2.00000
     97      -0.7889      2.00000
     98      -0.7418      2.00000
     99      -0.5737      2.00000
    100      -0.5203      2.00000
    101      -0.4868      2.00000
    102      -0.4598      2.00000
    103      -0.4565      2.00000
    104      -0.4118      2.00000
    105      -0.3194      2.00000
    106      -0.2870      2.00000
    107      -0.2520      2.00000
    108       0.0521      2.00000
    109       0.2646      2.00000
    110       0.3573      2.00000
    111       0.6691      2.00000
    112       0.8223      2.00002
    113       1.1327      2.02917
    114       1.5332      0.65870
    115       1.9737     -0.00344
    116       2.5110     -0.00000
    117       2.7448     -0.00000
    118       2.9276     -0.00000
    119       3.1767     -0.00000
    120       3.4487     -0.00000
    121       4.3478     -0.00000
    122       4.5103     -0.00000
    123       5.1098     -0.00000
    124       5.1506     -0.00000
    125       5.2348     -0.00000
    126       5.4563     -0.00000
    127       6.0792     -0.00000
    128       6.1953     -0.00000
    129       6.9144     -0.00000
    130       7.1426      0.00000
    131       7.2005      0.00000
    132       7.3830      0.00000
    133       7.5094      0.00000
    134       7.9452      0.00000
    135       7.9549      0.00000
    136       8.1717      0.00000

 k-point    23 :      -0.4286    0.4286    0.0000
  band No.  band energies     occupation 
      1     -16.7814      2.00000
      2      -6.3327      2.00000
      3      -5.7346      2.00000
      4      -5.6203      2.00000
      5      -5.2607      2.00000
      6      -4.9566      2.00000
      7      -4.6996      2.00000
      8      -4.5643      2.00000
      9      -4.4945      2.00000
     10      -4.4886      2.00000
     11      -4.4437      2.00000
     12      -4.4124      2.00000
     13      -4.3536      2.00000
     14      -4.2746      2.00000
     15      -4.2662      2.00000
     16      -4.1939      2.00000
     17      -4.1350      2.00000
     18      -4.0680      2.00000
     19      -4.0458      2.00000
     20      -3.9875      2.00000
     21      -3.9556      2.00000
     22      -3.8912      2.00000
     23      -3.8799      2.00000
     24      -3.7936      2.00000
     25      -3.7400      2.00000
     26      -3.6640      2.00000
     27      -3.6365      2.00000
     28      -3.6213      2.00000
     29      -3.5035      2.00000
     30      -3.5004      2.00000
     31      -3.3766      2.00000
     32      -3.3342      2.00000
     33      -3.3243      2.00000
     34      -3.2720      2.00000
     35      -3.2516      2.00000
     36      -3.2477      2.00000
     37      -3.2196      2.00000
     38      -3.1721      2.00000
     39      -3.1507      2.00000
     40      -3.1170      2.00000
     41      -3.0563      2.00000
     42      -2.9407      2.00000
     43      -2.8867      2.00000
     44      -2.8411      2.00000
     45      -2.8177      2.00000
     46      -2.7760      2.00000
     47      -2.7353      2.00000
     48      -2.6763      2.00000
     49      -2.6717      2.00000
     50      -2.6487      2.00000
     51      -2.5916      2.00000
     52      -2.5743      2.00000
     53      -2.5363      2.00000
     54      -2.4833      2.00000
     55      -2.4779      2.00000
     56      -2.4450      2.00000
     57      -2.3379      2.00000
     58      -2.3108      2.00000
     59      -2.2856      2.00000
     60      -2.2032      2.00000
     61      -2.1909      2.00000
     62      -2.1401      2.00000
     63      -2.1137      2.00000
     64      -2.0950      2.00000
     65      -2.0651      2.00000
     66      -2.0598      2.00000
     67      -1.9836      2.00000
     68      -1.9823      2.00000
     69      -1.9303      2.00000
     70      -1.9293      2.00000
     71      -1.9023      2.00000
     72      -1.8600      2.00000
     73      -1.7232      2.00000
     74      -1.7196      2.00000
     75      -1.6796      2.00000
     76      -1.6548      2.00000
     77      -1.6155      2.00000
     78      -1.5439      2.00000
     79      -1.5355      2.00000
     80      -1.4708      2.00000
     81      -1.4464      2.00000
     82      -1.3884      2.00000
     83      -1.3779      2.00000
     84      -1.3344      2.00000
     85      -1.3094      2.00000
     86      -1.2919      2.00000
     87      -1.2460      2.00000
     88      -1.2418      2.00000
     89      -1.1497      2.00000
     90      -1.1063      2.00000
     91      -1.0987      2.00000
     92      -1.0543      2.00000
     93      -0.9437      2.00000
     94      -0.8790      2.00000
     95      -0.8481      2.00000
     96      -0.8202      2.00000
     97      -0.7332      2.00000
     98      -0.6823      2.00000
     99      -0.5837      2.00000
    100      -0.4788      2.00000
    101      -0.4308      2.00000
    102      -0.4269      2.00000
    103      -0.3751      2.00000
    104      -0.3435      2.00000
    105      -0.3265      2.00000
    106      -0.2233      2.00000
    107      -0.1811      2.00000
    108       0.0764      2.00000
    109       0.5687      2.00000
    110       0.6348      2.00000
    111       0.9836      2.00192
    112       1.3358      1.96977
    113       1.3509      1.92325
    114       1.5711      0.38432
    115       1.8708     -0.02213
    116       2.0187     -0.00125
    117       2.4622     -0.00000
    118       2.8894     -0.00000
    119       2.9526     -0.00000
    120       3.3329     -0.00000
    121       4.1968     -0.00000
    122       4.3009     -0.00000
    123       4.5945     -0.00000
    124       5.4346     -0.00000
    125       5.5311     -0.00000
    126       5.7736     -0.00000
    127       6.2309     -0.00000
    128       6.3095     -0.00000
    129       6.6618     -0.00000
    130       6.7982     -0.00000
    131       6.8694     -0.00000
    132       7.3145      0.00000
    133       7.3469      0.00000
    134       7.5636      0.00000
    135       7.7924      0.00000
    136       8.1001      0.00000

 k-point    24 :      -0.2857    0.4286    0.0000
  band No.  band energies     occupation 
      1     -16.7830      2.00000
      2      -6.5644      2.00000
      3      -5.8376      2.00000
      4      -5.3757      2.00000
      5      -5.1643      2.00000
      6      -4.8844      2.00000
      7      -4.8452      2.00000
      8      -4.7310      2.00000
      9      -4.5785      2.00000
     10      -4.5519      2.00000
     11      -4.5046      2.00000
     12      -4.4633      2.00000
     13      -4.4267      2.00000
     14      -4.4196      2.00000
     15      -4.3623      2.00000
     16      -4.2727      2.00000
     17      -4.2236      2.00000
     18      -4.1584      2.00000
     19      -4.1185      2.00000
     20      -4.0320      2.00000
     21      -3.9957      2.00000
     22      -3.9476      2.00000
     23      -3.9123      2.00000
     24      -3.8506      2.00000
     25      -3.7699      2.00000
     26      -3.7371      2.00000
     27      -3.6842      2.00000
     28      -3.6236      2.00000
     29      -3.5126      2.00000
     30      -3.5010      2.00000
     31      -3.4035      2.00000
     32      -3.3723      2.00000
     33      -3.3574      2.00000
     34      -3.3252      2.00000
     35      -3.2706      2.00000
     36      -3.2150      2.00000
     37      -3.1510      2.00000
     38      -3.0881      2.00000
     39      -3.0639      2.00000
     40      -3.0212      2.00000
     41      -2.9819      2.00000
     42      -2.9393      2.00000
     43      -2.8838      2.00000
     44      -2.8329      2.00000
     45      -2.8060      2.00000
     46      -2.7444      2.00000
     47      -2.7011      2.00000
     48      -2.6811      2.00000
     49      -2.6682      2.00000
     50      -2.5959      2.00000
     51      -2.5643      2.00000
     52      -2.5370      2.00000
     53      -2.5117      2.00000
     54      -2.4874      2.00000
     55      -2.4740      2.00000
     56      -2.4177      2.00000
     57      -2.3810      2.00000
     58      -2.3277      2.00000
     59      -2.2806      2.00000
     60      -2.2522      2.00000
     61      -2.2167      2.00000
     62      -2.1559      2.00000
     63      -2.1086      2.00000
     64      -2.0554      2.00000
     65      -2.0256      2.00000
     66      -1.9638      2.00000
     67      -1.9386      2.00000
     68      -1.9007      2.00000
     69      -1.8614      2.00000
     70      -1.8201      2.00000
     71      -1.7910      2.00000
     72      -1.7299      2.00000
     73      -1.7209      2.00000
     74      -1.6675      2.00000
     75      -1.6481      2.00000
     76      -1.6309      2.00000
     77      -1.5742      2.00000
     78      -1.4913      2.00000
     79      -1.4353      2.00000
     80      -1.3800      2.00000
     81      -1.3556      2.00000
     82      -1.3389      2.00000
     83      -1.3079      2.00000
     84      -1.2530      2.00000
     85      -1.2069      2.00000
     86      -1.1582      2.00000
     87      -1.1268      2.00000
     88      -1.0867      2.00000
     89      -1.0244      2.00000
     90      -0.9186      2.00000
     91      -0.8833      2.00000
     92      -0.8646      2.00000
     93      -0.8218      2.00000
     94      -0.7642      2.00000
     95      -0.7402      2.00000
     96      -0.6387      2.00000
     97      -0.6099      2.00000
     98      -0.5776      2.00000
     99      -0.5433      2.00000
    100      -0.5162      2.00000
    101      -0.4786      2.00000
    102      -0.4628      2.00000
    103      -0.4380      2.00000
    104      -0.4036      2.00000
    105      -0.3655      2.00000
    106      -0.2843      2.00000
    107      -0.1027      2.00000
    108       0.1157      2.00000
    109       0.2402      2.00000
    110       0.3322      2.00000
    111       0.5386      2.00000
    112       0.7340      2.00000
    113       1.1574      2.03954
    114       1.6623     -0.00439
    115       2.1473     -0.00004
    116       2.2999     -0.00000
    117       2.6040     -0.00000
    118       3.0824     -0.00000
    119       3.2864     -0.00000
    120       3.7390     -0.00000
    121       4.0102     -0.00000
    122       4.1662     -0.00000
    123       4.4609     -0.00000
    124       4.6272     -0.00000
    125       5.0098     -0.00000
    126       5.7098     -0.00000
    127       6.0258     -0.00000
    128       6.3110     -0.00000
    129       6.5354     -0.00000
    130       6.7923     -0.00000
    131       6.9904      0.00000
    132       7.1386      0.00000
    133       7.3684      0.00000
    134       7.5282      0.00000
    135       7.8629      0.00000
    136       7.9175      0.00000

 k-point    25 :      -0.1429    0.4286    0.0000
  band No.  band energies     occupation 
      1     -16.7830      2.00000
      2      -6.5645      2.00000
      3      -5.8375      2.00000
      4      -5.3764      2.00000
      5      -5.1648      2.00000
      6      -4.8837      2.00000
      7      -4.8443      2.00000
      8      -4.7305      2.00000
      9      -4.5797      2.00000
     10      -4.5526      2.00000
     11      -4.5048      2.00000
     12      -4.4632      2.00000
     13      -4.4267      2.00000
     14      -4.4198      2.00000
     15      -4.3622      2.00000
     16      -4.2728      2.00000
     17      -4.2232      2.00000
     18      -4.1581      2.00000
     19      -4.1182      2.00000
     20      -4.0321      2.00000
     21      -3.9964      2.00000
     22      -3.9477      2.00000
     23      -3.9120      2.00000
     24      -3.8505      2.00000
     25      -3.7697      2.00000
     26      -3.7366      2.00000
     27      -3.6842      2.00000
     28      -3.6238      2.00000
     29      -3.5126      2.00000
     30      -3.4998      2.00000
     31      -3.4028      2.00000
     32      -3.3727      2.00000
     33      -3.3575      2.00000
     34      -3.3253      2.00000
     35      -3.2703      2.00000
     36      -3.2149      2.00000
     37      -3.1509      2.00000
     38      -3.0879      2.00000
     39      -3.0640      2.00000
     40      -3.0216      2.00000
     41      -2.9808      2.00000
     42      -2.9387      2.00000
     43      -2.8845      2.00000
     44      -2.8324      2.00000
     45      -2.8056      2.00000
     46      -2.7443      2.00000
     47      -2.7026      2.00000
     48      -2.6813      2.00000
     49      -2.6679      2.00000
     50      -2.5964      2.00000
     51      -2.5642      2.00000
     52      -2.5370      2.00000
     53      -2.5123      2.00000
     54      -2.4865      2.00000
     55      -2.4737      2.00000
     56      -2.4181      2.00000
     57      -2.3809      2.00000
     58      -2.3286      2.00000
     59      -2.2810      2.00000
     60      -2.2523      2.00000
     61      -2.2162      2.00000
     62      -2.1564      2.00000
     63      -2.1084      2.00000
     64      -2.0554      2.00000
     65      -2.0254      2.00000
     66      -1.9635      2.00000
     67      -1.9393      2.00000
     68      -1.9003      2.00000
     69      -1.8612      2.00000
     70      -1.8197      2.00000
     71      -1.7908      2.00000
     72      -1.7301      2.00000
     73      -1.7210      2.00000
     74      -1.6672      2.00000
     75      -1.6481      2.00000
     76      -1.6311      2.00000
     77      -1.5740      2.00000
     78      -1.4908      2.00000
     79      -1.4352      2.00000
     80      -1.3797      2.00000
     81      -1.3557      2.00000
     82      -1.3386      2.00000
     83      -1.3085      2.00000
     84      -1.2531      2.00000
     85      -1.2065      2.00000
     86      -1.1581      2.00000
     87      -1.1270      2.00000
     88      -1.0868      2.00000
     89      -1.0244      2.00000
     90      -0.9190      2.00000
     91      -0.8837      2.00000
     92      -0.8645      2.00000
     93      -0.8217      2.00000
     94      -0.7643      2.00000
     95      -0.7408      2.00000
     96      -0.6386      2.00000
     97      -0.6099      2.00000
     98      -0.5776      2.00000
     99      -0.5431      2.00000
    100      -0.5159      2.00000
    101      -0.4780      2.00000
    102      -0.4622      2.00000
    103      -0.4371      2.00000
    104      -0.4026      2.00000
    105      -0.3661      2.00000
    106      -0.2857      2.00000
    107      -0.1029      2.00000
    108       0.1155      2.00000
    109       0.2399      2.00000
    110       0.3321      2.00000
    111       0.5379      2.00000
    112       0.7335      2.00000
    113       1.1567      2.03922
    114       1.6621     -0.00399
    115       2.1464     -0.00004
    116       2.2996     -0.00000
    117       2.6041     -0.00000
    118       3.0837     -0.00000
    119       3.2864     -0.00000
    120       3.7388     -0.00000
    121       4.0099     -0.00000
    122       4.1657     -0.00000
    123       4.4611     -0.00000
    124       4.6278     -0.00000
    125       5.0092     -0.00000
    126       5.7106     -0.00000
    127       6.0255     -0.00000
    128       6.3097     -0.00000
    129       6.5354     -0.00000
    130       6.7916     -0.00000
    131       6.9909      0.00000
    132       7.1379      0.00000
    133       7.3685      0.00000
    134       7.5283      0.00000
    135       7.8648      0.00000
    136       7.9181      0.00000


--------------------------------------------------------------------------------------------------------


 soft charge-density along one line, spin component           1
         0         1         2         3         4         5         6         7         8         9
 total charge-density along one line
 
 pseudopotential strength for first ion, spin component:           1
 -7.007  -0.000  -0.000   0.004   0.000  -7.177  -0.000  -0.000
 -0.000  -6.975  -0.000   0.000   0.004  -0.000  -7.145  -0.000
 -0.000  -0.000  -6.972  -0.000   0.000  -0.000  -0.000  -7.143
  0.004   0.000  -0.000  -6.975  -0.000   0.004   0.000  -0.000
  0.000   0.004   0.000  -0.000  -7.007   0.000   0.004   0.000
 -7.177  -0.000  -0.000   0.004   0.000  -7.330  -0.000  -0.000
 -0.000  -7.145  -0.000   0.000   0.004  -0.000  -7.299  -0.000
 -0.000  -0.000  -7.143  -0.000   0.000  -0.000  -0.000  -7.297
  0.004   0.000  -0.000  -7.145  -0.000   0.004   0.000  -0.000
  0.000   0.004   0.000  -0.000  -7.177   0.000   0.004   0.000
 -0.000   0.000  -0.013   0.000   0.000  -0.000   0.000  -0.013
 -0.000   0.000  -0.020   0.000   0.000  -0.000   0.000  -0.019
 -0.000  -0.005   0.000  -0.000  -0.000  -0.000  -0.004   0.000
 -0.000  -0.000  -0.007  -0.000  -0.000  -0.000  -0.000  -0.006
 -0.000  -0.000   0.000  -0.005  -0.000  -0.000  -0.000   0.000
 -0.000  -0.004   0.000   0.000  -0.000  -0.000  -0.004   0.000
  0.000  -0.000  -0.007  -0.000   0.000   0.000  -0.000  -0.007
 -0.000   0.000   0.000  -0.004  -0.000  -0.000   0.000   0.000
 total augmentation occupancy for first ion, spin component:           1
  4.063  -0.000   0.000   0.005   0.000  -2.040   0.000  -0.000   0.056  -0.000   0.000   0.000   0.000  -0.000   0.027  -0.000
 -0.000   3.646  -0.000   0.000   0.005   0.000  -1.450   0.000  -0.000   0.055  -0.000   0.000  -0.142   0.000  -0.000   0.003
  0.000  -0.000   4.173  -0.001   0.000  -0.000   0.000  -2.011   0.001  -0.000   0.573  -0.057   0.000  -0.232   0.000   0.000
  0.005   0.000  -0.001   3.646  -0.000   0.056  -0.000   0.001  -1.450   0.000  -0.000   0.000  -0.000   0.000  -0.142   0.000
  0.000   0.005   0.000  -0.000   4.063  -0.000   0.056  -0.000   0.000  -2.040   0.000   0.000   0.027  -0.000   0.000  -0.001
 -2.040   0.000  -0.000   0.056  -0.000   1.931  -0.000   0.000  -0.101   0.000  -0.000  -0.000  -0.000   0.000  -0.028   0.000
  0.000  -1.450   0.000  -0.000   0.056  -0.000   1.214  -0.000   0.000  -0.101   0.000   0.000   0.137  -0.000   0.000  -0.006
 -0.000   0.000  -2.011   0.001  -0.000   0.000  -0.000   1.796  -0.000   0.000  -0.520   0.076  -0.000   0.242  -0.000   0.000
  0.056  -0.000   0.001  -1.450   0.000  -0.101   0.000  -0.000   1.214  -0.000   0.000   0.000   0.000  -0.000   0.138  -0.000
 -0.000   0.055  -0.000   0.000  -2.040   0.000  -0.101   0.000  -0.000   1.931  -0.000  -0.000  -0.028   0.000  -0.000   0.001
  0.000  -0.000   0.573  -0.000   0.000  -0.000   0.000  -0.520   0.000  -0.000   2.194  -0.477   0.000   0.133   0.000  -0.000
  0.000   0.000  -0.057   0.000   0.000  -0.000   0.000   0.076   0.000  -0.000  -0.477   0.153   0.000  -0.057   0.000   0.000
  0.000  -0.142   0.000  -0.000   0.027  -0.000   0.137  -0.000   0.000  -0.028   0.000   0.000   0.149  -0.000   0.000  -0.005
 -0.000   0.000  -0.232   0.000  -0.000   0.000  -0.000   0.242  -0.000   0.000   0.133  -0.057  -0.000   0.085  -0.000   0.000
  0.027  -0.000   0.000  -0.142   0.000  -0.028   0.000  -0.000   0.138  -0.000   0.000   0.000   0.000  -0.000   0.149  -0.000
 -0.000   0.003   0.000   0.000  -0.001   0.000  -0.006   0.000  -0.000   0.001  -0.000   0.000  -0.005   0.000  -0.000   0.000
  0.000  -0.000  -0.000  -0.000   0.000  -0.000   0.000  -0.007   0.000  -0.000  -0.009   0.003   0.000  -0.003   0.000   0.000
 -0.001   0.000   0.000   0.003  -0.000   0.001  -0.000   0.000  -0.006   0.000  -0.000   0.000  -0.000   0.000  -0.005   0.000


------------------------ aborting loop because EDIFF is reached ----------------------------------------


    CHARGE:  cpu time    0.1488: real time    0.1512
    FORLOC:  cpu time    0.0028: real time    0.0030
    FORNL :  cpu time    0.7715: real time    0.7823
    STRESS:  cpu time    2.2330: real time    2.2647
    FORCOR:  cpu time    0.0278: real time    0.0287
    FORHAR:  cpu time    0.0089: real time    0.0096
    MIXING:  cpu time    0.0008: real time    0.0008
    OFIELD:  cpu time    0.0001: real time    0.0004

  FORCE on cell =-STRESS in cart. coord.  units (eV):
  Direction    XX          YY          ZZ          XY          YZ          ZX
  --------------------------------------------------------------------------------------
  Alpha Z   658.61178   658.61178   658.61178
  Ewald   76030.65350 76032.70650-89000.90225    -2.63262     0.93287     2.00088
  Hartree 81184.13519 81185.03935-79445.27047    -1.16429     0.37169     0.64592
  E(xc)   -1018.43687 -1018.43221 -1021.55567    -0.00558     0.00208     0.00493
  Local  ************************164267.26018     3.63086    -1.23865    -2.45940
  n-local   -41.17815   -41.17963   -35.45682     0.00959     0.00615    -0.00324
  augment  1358.81086  1358.79045  1366.15767     0.03306    -0.01830    -0.05037
  Kinetic  3187.29939  3187.23510  3210.90137     0.09522    -0.03420    -0.10436
  Fock        0.00000     0.00000     0.00000     0.00000     0.00000     0.00000
  -------------------------------------------------------------------------------------
  Total      -2.99145    -2.96927    -0.25421    -0.03377     0.02164     0.03435
  in kB      -6.52383    -6.47546    -0.55438    -0.07364     0.04719     0.07492
  external pressure =       -4.52 kB  Pullay stress =        0.00 kB


 VOLUME and BASIS-vectors are now :
 -----------------------------------------------------------------------------
  energy-cutoff  :      400.00
  volume of cell :      734.67
      direct lattice vectors                 reciprocal lattice vectors
     5.873400211  0.000000000  0.000000000     0.170259128  0.098299154  0.000000000
    -2.936700106  5.086513790  0.000000000     0.000000000  0.196598307  0.000000000
     0.000000000  0.000000000 24.591199875     0.000000000  0.000000000  0.040664954

  length of vectors
     5.873400211  5.873400211 24.591199875     0.196598307  0.196598307  0.040664954


 FORCES acting on ions
    electron-ion (+dipol)            ewald-force                    non-local-force                 convergence-correction
 -----------------------------------------------------------------------------------------------
   0.996E-02 0.436E-02 0.303E+04   -.757E-02 -.373E-02 -.303E+04   -.161E-02 -.539E-03 -.504E+00   -.753E-04 0.133E-03 0.691E-02
   -.899E-01 -.390E-01 0.157E+04   0.950E-01 0.403E-01 -.157E+04   -.557E-02 -.115E-02 -.578E+00   0.303E-03 0.170E-03 -.153E-01
   0.211E-01 0.536E-01 0.110E+03   -.209E-01 -.519E-01 -.110E+03   0.173E-02 -.133E-02 -.167E+00   0.443E-04 -.158E-03 -.462E-01
   -.525E-01 -.108E+00 -.140E+04   0.480E-01 0.106E+00 0.140E+04   0.752E-02 0.188E-02 -.371E+00   -.256E-03 0.544E-03 -.710E-01
   -.932E+00 0.211E+00 -.281E+04   0.926E+00 -.210E+00 0.280E+04   0.103E-01 -.733E-05 0.209E+01   0.263E-03 -.480E-03 -.365E-01
   0.166E+00 0.977E-01 0.303E+04   -.112E+00 -.664E-01 -.303E+04   -.222E-01 -.132E-01 -.350E+00   -.201E-03 -.250E-03 0.659E-02
   -.541E+00 -.363E+00 0.157E+04   0.477E+00 0.325E+00 -.157E+04   0.486E-01 0.301E-01 -.661E+00   -.450E-03 -.107E-03 -.155E-01
   -.147E+01 -.802E+00 0.934E+02   0.141E+01 0.770E+00 -.934E+02   0.570E-01 0.313E-01 0.347E-01   0.531E-03 0.466E-03 -.442E-01
   -.427E+01 -.225E+01 -.137E+04   0.433E+01 0.228E+01 0.137E+04   -.505E-01 -.304E-01 0.745E+00   -.144E-02 -.188E-02 -.674E-01
   -.351E+02 -.208E+02 -.286E+04   0.368E+02 0.218E+02 0.286E+04   -.175E+01 -.101E+01 -.162E-01   0.740E-02 0.405E-02 -.343E-01
   -.166E+00 0.861E-01 0.303E+04   0.112E+00 -.567E-01 -.303E+04   0.232E-01 -.117E-01 -.358E+00   0.683E-04 -.613E-04 0.613E-02
   0.788E+00 -.287E+00 0.158E+04   -.714E+00 0.245E+00 -.157E+04   -.634E-01 0.333E-01 -.673E+00   0.340E-03 -.259E-03 -.156E-01
   0.171E+01 -.110E+01 0.923E+02   -.164E+01 0.106E+01 -.923E+02   -.667E-01 0.416E-01 0.193E-01   0.810E-05 0.314E-03 -.454E-01
   0.395E+01 -.243E+01 -.137E+04   -.402E+01 0.246E+01 0.137E+04   0.694E-01 -.310E-01 0.752E+00   0.176E-02 -.159E-02 -.669E-01
   0.354E+02 -.203E+02 -.286E+04   -.372E+02 0.213E+02 0.286E+04   0.175E+01 -.101E+01 -.193E-01   -.674E-02 0.405E-02 -.348E-01
   -.979E-02 -.187E+00 0.303E+04   0.838E-02 0.126E+00 -.303E+04   0.160E-02 0.256E-01 -.357E+00   0.522E-04 0.272E-03 0.605E-02
   0.196E+00 0.747E+00 0.158E+04   -.195E+00 -.665E+00 -.157E+04   -.490E-02 -.668E-01 -.672E+00   -.556E-03 0.373E-03 -.156E-01
   -.596E-01 0.194E+01 0.925E+02   0.581E-01 -.187E+01 -.925E+02   0.244E-02 -.755E-01 0.231E-01   0.102E-03 0.144E-03 -.458E-01
   -.142E+00 0.474E+01 -.137E+04   0.137E+00 -.481E+01 0.137E+04   0.722E-02 0.677E-01 0.750E+00   0.112E-03 0.292E-02 -.673E-01
   0.707E+00 0.409E+02 -.286E+04   -.700E+00 -.429E+02 0.286E+04   -.105E-01 0.202E+01 -.197E-01   -.541E-04 -.847E-02 -.361E-01
   -.151E+00 -.142E+00 -.188E+04   0.192E+00 0.162E+00 0.190E+04   -.400E-01 -.218E-01 -.254E+02   -.546E-03 0.564E-03 0.572E-02
 -----------------------------------------------------------------------------------------------
   0.472E-01 0.187E-01 0.264E+02   0.207E-13 -.848E-13 0.227E-12   -.443E-01 -.194E-01 -.258E+02   0.663E-03 0.752E-03 -.626E+00
 
 
 POSITION                                       TOTAL-FORCE (eV/Angst)
 -----------------------------------------------------------------------------------
     -0.00003      3.39103      0.99988         0.000526      0.000222     -0.024445
      0.00000      0.00000      3.39777        -0.000361      0.000323      0.147041
      2.92955      1.69424      5.76242         0.001804      0.000249      0.000779
     -0.01390      3.38739      8.23858         0.002631      0.000466     -0.001661
      2.91688      5.07980     10.37967         0.003803     -0.000340      0.001173
      1.46832      0.84777      0.99988         0.031118      0.017915     -0.084771
     -1.46835      2.54326      3.39777        -0.016349     -0.008088      0.050231
      1.45392      4.23303      5.77584        -0.001193     -0.000873     -0.001790
      1.47207      0.85532      8.12903         0.001998      0.000930     -0.000536
     -1.38843      2.59189     10.65848         0.004830      0.003218     -0.000822
      4.40502      0.84777      0.99988        -0.030702      0.017758     -0.085367
      1.46835      2.54326      3.39777         0.010061     -0.008942      0.047803
     -1.46339      4.23146      5.77774         0.000021      0.001348     -0.002286
      4.37007      0.85501      8.12530         0.001288     -0.000131     -0.001658
      1.35576      2.59153     10.66147        -0.004595      0.000925     -0.002831
      2.93667      3.39103      0.99988         0.000063     -0.035488     -0.085250
      2.93670      0.00000      3.39777        -0.004156      0.015339      0.048045
     -0.00591      1.70591      5.77742         0.000865     -0.000345     -0.001600
      2.92223      3.36558      8.12513         0.002228      0.000034      0.000838
     -0.01675      4.96839     10.66168        -0.004283     -0.002800     -0.004482
      2.92120      1.68918     11.74645         0.000402     -0.001721      0.001587
 -----------------------------------------------------------------------------------
    total drift:                                0.003565      0.000073      0.007522


--------------------------------------------------------------------------------------------------------



  FREE ENERGIE OF THE ION-ELECTRON SYSTEM (eV)
  ---------------------------------------------------
  free  energy   TOTEN  =       -66.75247912 eV

  energy  without entropy=      -66.74760791  energy(sigma->0) =      -66.75085539
 


--------------------------------------------------------------------------------------------------------


    POTLOK:  cpu time    0.0329: real time    0.0339


--------------------------------------------------------------------------------------------------------


 writing wavefunctions
     LOOP+:  cpu time   88.1324: real time   92.2691
    4ORBIT:  cpu time    0.0000: real time    0.0000

 total amount of memory used by VASP MPI-rank0    55177. kBytes
=======================================================================

   base      :      30000. kBytes
   nonlr-proj:       2210. kBytes
   fftplans  :       1579. kBytes
   grid      :       2489. kBytes
   one-center:         77. kBytes
   wavefun   :      18822. kBytes
 
  
  
 General timing and accounting informations for this job:
 ========================================================
  
                  Total CPU time used (sec):      105.131
                            User time (sec):       96.753
                          System time (sec):        8.378
                         Elapsed time (sec):      115.459
  
                   Maximum memory used (kb):       95464.
                   Average memory used (kb):           0.
  
                          Minor page faults:        41480
                          Major page faults:           34
                 Voluntary context switches:         4898
